Angle,Intensity
10.0042,17
10.0125,24
10.0209,22
10.0292,13
10.0376,18
10.046,17
10.0543,20
10.0627,22
10.071,14
10.0794,30
10.0877,18
10.0961,15
10.1044,28
10.1128,13
10.1212,23
10.1295,23
10.1379,28
10.1462,14
10.1546,20
10.1629,21
10.1713,18
10.1796,14
10.188,15
10.1964,24
10.2047,20
10.2131,22
10.2214,23
10.2298,18
10.2381,29
10.2465,22
10.2548,21
10.2632,26
10.2716,13
10.2799,22
10.2883,21
10.2966,21
10.305,20
10.3133,18
10.3217,26
10.33,23
10.3384,16
10.3468,21
10.3551,24
10.3635,29
10.3718,24
10.3802,15
10.3885,22
10.3969,21
10.4052,16
10.4136,15
10.422,18
10.4303,26
10.4387,16
10.447,15
10.4554,18
10.4637,22
10.4721,26
10.4804,22
10.4888,23
10.4972,15
10.5055,17
10.5139,9
10.5222,14
10.5306,28
10.5389,26
10.5473,23
10.5556,11
10.564,17
10.5724,16
10.5807,10
10.5891,11
10.5974,24
10.6058,20
10.6141,18
10.6225,22
10.6309,17
10.6392,18
10.6476,22
10.6559,22
10.6643,16
10.6726,14
10.681,23
10.6893,22
10.6977,15
10.7061,22
10.7144,17
10.7228,22
10.7311,20
10.7395,16
10.7478,17
10.7562,20
10.7645,23
10.7729,17
10.7813,16
10.7896,20
10.798,14
10.8063,15
10.8147,16
10.823,20
10.8314,22
10.8397,17
10.8481,15
10.8565,17
10.8648,15
10.8732,21
10.8815,14
10.8899,20
10.8982,27
10.9066,22
10.9149,26
10.9233,17
10.9317,28
10.94,16
10.9484,13
10.9567,16
10.9651,20
10.9734,20
10.9818,18
10.9901,26
10.9985,18
11.0069,20
11.0152,28
11.0236,24
11.0319,18
11.0403,15
11.0486,15
11.057,21
11.0653,23
11.0737,14
11.0821,10
11.0904,20
11.0988,21
11.1071,17
11.1155,26
11.1238,18
11.1322,9
11.1405,18
11.1489,24
11.1573,18
11.1656,22
11.174,24
11.1823,15
11.1907,27
11.199,18
11.2074,28
11.2157,20
11.2241,16
11.2325,21
11.2408,23
11.2492,14
11.2575,13
11.2659,15
11.2742,18
11.2826,13
11.2909,28
11.2993,15
11.3077,14
11.316,22
11.3244,16
11.3327,22
11.3411,15
11.3494,21
11.3578,20
11.3661,18
11.3745,17
11.3829,18
11.3912,15
11.3996,14
11.4079,17
11.4163,22
11.4246,18
11.433,11
11.4413,28
11.4497,18
11.4581,23
11.4664,23
11.4748,27
11.4831,11
11.4915,17
11.4998,18
11.5082,14
11.5165,16
11.5249,17
11.5333,18
11.5416,24
11.55,21
11.5583,14
11.5667,20
11.575,22
11.5834,22
11.5917,24
11.6001,24
11.6085,21
11.6168,22
11.6252,21
11.6335,29
11.6419,17
11.6502,23
11.6586,23
11.6669,27
11.6753,30
11.6837,24
11.692,16
11.7004,27
11.7087,23
11.7171,23
11.7254,17
11.7338,18
11.7421,18
11.7505,20
11.7589,21
11.7672,17
11.7756,21
11.7839,18
11.7923,22
11.8006,18
11.809,18
11.8174,21
11.8257,22
11.8341,28
11.8424,18
11.8508,23
11.8591,20
11.8675,27
11.8758,21
11.8842,39
11.8926,29
11.9009,18
11.9093,22
11.9176,21
11.926,24
11.9343,16
11.9427,27
11.951,17
11.9594,21
11.9678,20
11.9761,24
11.9845,26
11.9928,34
12.0012,20
12.0095,17
12.0179,21
12.0262,26
12.0346,24
12.043,26
12.0513,30
12.0597,18
12.068,21
12.0764,28
12.0847,20
12.0931,30
12.1014,22
12.1098,34
12.1182,14
12.1265,31
12.1349,17
12.1432,21
12.1516,24
12.1599,33
12.1683,23
12.1766,14
12.185,20
12.1934,27
12.2017,17
12.2101,13
12.2184,16
12.2268,30
12.2351,22
12.2435,14
12.2518,17
12.2602,22
12.2686,26
12.2769,29
12.2853,28
12.2936,29
12.302,27
12.3103,22
12.3187,23
12.327,18
12.3354,14
12.3438,16
12.3521,22
12.3605,20
12.3688,18
12.3772,23
12.3855,14
12.3939,14
12.4022,23
12.4106,15
12.419,18
12.4273,26
12.4357,23
12.444,29
12.4524,20
12.4607,21
12.4691,18
12.4774,24
12.4858,16
12.4942,27
12.5025,16
12.5109,18
12.5192,18
12.5276,16
12.5359,24
12.5443,24
12.5526,16
12.561,14
12.5694,22
12.5777,11
12.5861,20
12.5944,29
12.6028,30
12.6111,14
12.6195,24
12.6278,18
12.6362,9
12.6446,26
12.6529,21
12.6613,10
12.6696,11
12.678,31
12.6863,20
12.6947,20
12.703,22
12.7114,26
12.7198,18
12.7281,22
12.7365,17
12.7448,13
12.7532,20
12.7615,13
12.7699,14
12.7782,30
12.7866,15
12.795,13
12.8033,26
12.8117,29
12.82,23
12.8284,23
12.8367,16
12.8451,17
12.8534,22
12.8618,24
12.8702,14
12.8785,22
12.8869,8
12.8952,18
12.9036,22
12.9119,21
12.9203,23
12.9286,20
12.937,18
12.9454,27
12.9537,20
12.9621,18
12.9704,15
12.9788,24
12.9871,23
12.9955,17
13.0039,24
13.0122,27
13.0206,22
13.0289,24
13.0373,18
13.0456,22
13.054,16
13.0623,15
13.0707,21
13.0791,34
13.0874,36
13.0958,15
13.1041,27
13.1125,26
13.1208,21
13.1292,20
13.1375,15
13.1459,15
13.1543,16
13.1626,20
13.171,14
13.1793,17
13.1877,22
13.196,14
13.2044,18
13.2127,16
13.2211,31
13.2295,16
13.2378,11
13.2462,23
13.2545,17
13.2629,23
13.2712,23
13.2796,22
13.2879,17
13.2963,22
13.3047,22
13.313,18
13.3214,29
13.3297,27
13.3381,15
13.3464,24
13.3548,11
13.3631,22
13.3715,21
13.3799,20
13.3882,22
13.3966,24
13.4049,17
13.4133,17
13.4216,23
13.43,20
13.4383,18
13.4467,22
13.4551,13
13.4634,13
13.4718,20
13.4801,13
13.4885,23
13.4968,26
13.5052,21
13.5135,18
13.5219,17
13.5303,21
13.5386,20
13.547,18
13.5553,21
13.5637,20
13.572,20
13.5804,27
13.5887,26
13.5971,24
13.6055,18
13.6138,24
13.6222,15
13.6305,16
13.6389,28
13.6472,15
13.6556,16
13.6639,23
13.6723,24
13.6807,16
13.689,26
13.6974,27
13.7057,18
13.7141,21
13.7224,20
13.7308,20
13.7391,24
13.7475,17
13.7559,23
13.7642,22
13.7726,23
13.7809,26
13.7893,21
13.7976,22
13.806,17
13.8143,21
13.8227,16
13.8311,16
13.8394,16
13.8478,16
13.8561,10
13.8645,23
13.8728,13
13.8812,20
13.8895,26
13.8979,28
13.9063,20
13.9146,29
13.923,22
13.9313,18
13.9397,26
13.948,16
13.9564,22
13.9647,18
13.9731,20
13.9815,16
13.9898,23
13.9982,18
14.0065,21
14.0149,24
14.0232,22
14.0316,24
14.0399,20
14.0483,9
14.0567,15
14.065,28
14.0734,17
14.0817,21
14.0901,24
14.0984,21
14.1068,26
14.1151,15
14.1235,17
14.1319,23
14.1402,16
14.1486,15
14.1569,16
14.1653,14
14.1736,22
14.182,17
14.1904,22
14.1987,11
14.2071,17
14.2154,18
14.2238,17
14.2321,17
14.2405,21
14.2488,23
14.2572,31
14.2656,24
14.2739,15
14.2823,18
14.2906,16
14.299,16
14.3073,33
14.3157,21
14.324,23
14.3324,26
14.3408,17
14.3491,29
14.3575,14
14.3658,24
14.3742,24
14.3825,22
14.3909,22
14.3992,23
14.4076,17
14.416,13
14.4243,27
14.4327,15
14.441,15
14.4494,16
14.4577,23
14.4661,15
14.4744,16
14.4828,23
14.4912,21
14.4995,24
14.5079,24
14.5162,15
14.5246,9
14.5329,18
14.5413,21
14.5496,26
14.558,22
14.5664,23
14.5747,22
14.5831,21
14.5914,18
14.5998,23
14.6081,27
14.6165,21
14.6248,21
14.6332,10
14.6416,22
14.6499,28
14.6583,16
14.6666,22
14.675,20
14.6833,27
14.6917,20
14.7,22
14.7084,9
14.7168,20
14.7251,22
14.7335,26
14.7418,18
14.7502,23
14.7585,17
14.7669,24
14.7752,9
14.7836,22
14.792,17
14.8003,17
14.8087,23
14.817,21
14.8254,23
14.8337,22
14.8421,27
14.8504,21
14.8588,26
14.8672,16
14.8755,18
14.8839,17
14.8922,22
14.9006,17
14.9089,20
14.9173,21
14.9256,20
14.934,33
14.9424,21
14.9507,20
14.9591,24
14.9674,21
14.9758,14
14.9841,20
14.9925,17
15.0008,23
15.0092,14
15.0176,27
15.0259,16
15.0343,11
15.0426,16
15.051,21
15.0593,9
15.0677,26
15.076,21
15.0844,15
15.0928,18
15.1011,14
15.1095,15
15.1178,20
15.1262,29
15.1345,22
15.1429,17
15.1512,20
15.1596,21
15.168,16
15.1763,20
15.1847,23
15.193,16
15.2014,26
15.2097,28
15.2181,28
15.2264,20
15.2348,5
15.2432,21
15.2515,18
15.2599,21
15.2682,21
15.2766,20
15.2849,11
15.2933,15
15.3017,24
15.31,16
15.3184,21
15.3267,18
15.3351,13
15.3434,26
15.3518,34
15.3601,21
15.3685,21
15.3769,20
15.3852,21
15.3936,26
15.4019,20
15.4103,18
15.4186,18
15.427,18
15.4353,22
15.4437,18
15.4521,21
15.4604,16
15.4688,18
15.4771,21
15.4855,15
15.4938,20
15.5022,14
15.5105,16
15.5189,21
15.5273,10
15.5356,18
15.544,27
15.5523,24
15.5607,13
15.569,13
15.5774,27
15.5857,26
15.5941,13
15.6025,18
15.6108,21
15.6192,23
15.6275,24
15.6359,22
15.6442,30
15.6526,23
15.6609,20
15.6693,28
15.6777,21
15.686,13
15.6944,21
15.7027,17
15.7111,17
15.7194,21
15.7278,18
15.7361,14
15.7445,23
15.7529,15
15.7612,18
15.7696,11
15.7779,28
15.7863,21
15.7946,13
15.803,18
15.8113,23
15.8197,29
15.8281,23
15.8364,23
15.8448,28
15.8531,26
15.8615,13
15.8698,29
15.8782,18
15.8865,14
15.8949,13
15.9033,26
15.9116,34
15.92,28
15.9283,22
15.9367,20
15.945,18
15.9534,17
15.9617,30
15.9701,36
15.9785,22
15.9868,16
15.9952,10
16.0035,23
16.0119,13
16.0202,10
16.0286,21
16.0369,18
16.0453,24
16.0537,18
16.062,23
16.0704,23
16.0787,26
16.0871,18
16.0954,18
16.1038,17
16.1121,18
16.1205,13
16.1289,31
16.1372,20
16.1456,27
16.1539,36
16.1623,15
16.1706,15
16.179,28
16.1873,27
16.1957,29
16.2041,20
16.2124,15
16.2208,21
16.2291,24
16.2375,29
16.2458,20
16.2542,20
16.2625,22
16.2709,26
16.2793,29
16.2876,17
16.296,30
16.3043,22
16.3127,24
16.321,28
16.3294,24
16.3377,16
16.3461,14
16.3545,26
16.3628,23
16.3712,15
16.3795,18
16.3879,21
16.3962,13
16.4046,24
16.4129,16
16.4213,22
16.4297,22
16.438,31
16.4464,18
16.4547,21
16.4631,13
16.4714,17
16.4798,18
16.4882,16
16.4965,27
16.5049,22
16.5132,16
16.5216,18
16.5299,23
16.5383,20
16.5466,20
16.555,27
16.5634,24
16.5717,29
16.5801,15
16.5884,24
16.5968,23
16.6051,22
16.6135,14
16.6218,13
16.6302,21
16.6386,23
16.6469,26
16.6553,17
16.6636,22
16.672,30
16.6803,18
16.6887,18
16.697,22
16.7054,21
16.7138,26
16.7221,31
16.7305,20
16.7388,20
16.7472,15
16.7555,17
16.7639,28
16.7722,13
16.7806,21
16.789,24
16.7973,15
16.8057,18
16.814,23
16.8224,21
16.8307,15
16.8391,22
16.8474,16
16.8558,14
16.8642,23
16.8725,18
16.8809,23
16.8892,11
16.8976,15
16.9059,24
16.9143,29
16.9226,30
16.931,20
16.9394,22
16.9477,14
16.9561,26
16.9644,14
16.9728,23
16.9811,26
16.9895,18
16.9978,18
17.0062,24
17.0146,23
17.0229,17
17.0313,27
17.0396,17
17.048,20
17.0563,11
17.0647,17
17.073,13
17.0814,33
17.0898,9
17.0981,21
17.1065,18
17.1148,21
17.1232,14
17.1315,26
17.1399,18
17.1482,29
17.1566,23
17.165,21
17.1733,18
17.1817,22
17.19,24
17.1984,21
17.2067,16
17.2151,20
17.2234,17
17.2318,21
17.2402,23
17.2485,22
17.2569,24
17.2652,15
17.2736,22
17.2819,23
17.2903,15
17.2986,22
17.307,24
17.3154,22
17.3237,18
17.3321,11
17.3404,21
17.3488,20
17.3571,22
17.3655,29
17.3738,16
17.3822,23
17.3906,20
17.3989,21
17.4073,13
17.4156,14
17.424,20
17.4323,16
17.4407,27
17.449,20
17.4574,27
17.4658,26
17.4741,10
17.4825,14
17.4908,31
17.4992,27
17.5075,15
17.5159,17
17.5242,20
17.5326,22
17.541,18
17.5493,28
17.5577,20
17.566,22
17.5744,20
17.5827,18
17.5911,29
17.5994,24
17.6078,24
17.6162,24
17.6245,10
17.6329,18
17.6412,14
17.6496,16
17.6579,22
17.6663,16
17.6747,18
17.683,24
17.6914,27
17.6997,15
17.7081,15
17.7164,23
17.7248,15
17.7331,27
17.7415,16
17.7499,20
17.7582,24
17.7666,20
17.7749,15
17.7833,17
17.7916,20
17.8,23
17.8083,21
17.8167,24
17.8251,18
17.8334,30
17.8418,22
17.8501,24
17.8585,18
17.8668,21
17.8752,18
17.8835,26
17.8919,21
17.9003,24
17.9086,23
17.917,15
17.9253,24
17.9337,23
17.942,26
17.9504,17
17.9587,26
17.9671,24
17.9755,31
17.9838,30
17.9922,20
18.0005,16
18.0089,20
18.0172,21
18.0256,18
18.0339,24
18.0423,26
18.0507,13
18.059,20
18.0674,11
18.0757,23
18.0841,26
18.0924,27
18.1008,15
18.1091,17
18.1175,30
18.1259,20
18.1342,24
18.1426,22
18.1509,24
18.1593,27
18.1676,22
18.176,13
18.1843,20
18.1927,20
18.2011,20
18.2094,13
18.2178,18
18.2261,34
18.2345,17
18.2428,16
18.2512,22
18.2595,21
18.2679,11
18.2763,23
18.2846,20
18.293,18
18.3013,14
18.3097,22
18.318,24
18.3264,15
18.3347,26
18.3431,20
18.3515,17
18.3598,21
18.3682,23
18.3765,22
18.3849,20
18.3932,18
18.4016,21
18.4099,24
18.4183,26
18.4267,33
18.435,26
18.4434,15
18.4517,23
18.4601,21
18.4684,24
18.4768,22
18.4851,15
18.4935,23
18.5019,30
18.5102,22
18.5186,20
18.5269,17
18.5353,21
18.5436,23
18.552,23
18.5603,26
18.5687,22
18.5771,24
18.5854,23
18.5938,16
18.6021,21
18.6105,30
18.6188,15
18.6272,20
18.6355,15
18.6439,10
18.6523,14
18.6606,15
18.669,21
18.6773,18
18.6857,16
18.694,30
18.7024,14
18.7107,18
18.7191,17
18.7275,21
18.7358,22
18.7442,27
18.7525,11
18.7609,22
18.7692,28
18.7776,15
18.7859,22
18.7943,16
18.8027,16
18.811,16
18.8194,24
18.8277,15
18.8361,26
18.8444,23
18.8528,15
18.8612,18
18.8695,17
18.8779,22
18.8862,10
18.8946,24
18.9029,27
18.9113,21
18.9196,26
18.928,17
18.9364,18
18.9447,16
18.9531,16
18.9614,26
18.9698,20
18.9781,33
18.9865,33
18.9948,22
19.0032,23
19.0116,23
19.0199,23
19.0283,22
19.0366,16
19.045,27
19.0533,15
19.0617,24
19.07,14
19.0784,27
19.0868,18
19.0951,10
19.1035,21
19.1118,14
19.1202,14
19.1285,11
19.1369,27
19.1452,24
19.1536,17
19.162,20
19.1703,20
19.1787,15
19.187,20
19.1954,22
19.2037,22
19.2121,9
19.2204,18
19.2288,16
19.2372,20
19.2455,16
19.2539,21
19.2622,26
19.2706,11
19.2789,24
19.2873,16
19.2956,22
19.304,24
19.3124,17
19.3207,24
19.3291,15
19.3374,22
19.3458,13
19.3541,34
19.3625,26
19.3708,20
19.3792,16
19.3876,21
19.3959,21
19.4043,28
19.4126,15
19.421,20
19.4293,26
19.4377,18
19.446,15
19.4544,20
19.4628,24
19.4711,16
19.4795,18
19.4878,22
19.4962,30
19.5045,20
19.5129,22
19.5212,22
19.5296,20
19.538,27
19.5463,24
19.5547,18
19.563,14
19.5714,27
19.5797,17
19.5881,23
19.5964,24
19.6048,17
19.6132,27
19.6215,24
19.6299,28
19.6382,24
19.6466,24
19.6549,22
19.6633,16
19.6716,23
19.68,22
19.6884,30
19.6967,18
19.7051,26
19.7134,20
19.7218,18
19.7301,29
19.7385,26
19.7468,22
19.7552,26
19.7636,22
19.7719,18
19.7803,23
19.7886,23
19.797,16
19.8053,29
19.8137,23
19.822,17
19.8304,31
19.8388,23
19.8471,18
19.8555,15
19.8638,27
19.8722,22
19.8805,15
19.8889,23
19.8972,23
19.9056,17
19.914,21
19.9223,22
19.9307,26
19.939,20
19.9474,23
19.9557,24
19.9641,21
19.9724,20
19.9808,26
19.9892,17
19.9975,34
20.0059,26
20.0142,17
20.0226,24
20.0309,23
20.0393,14
20.0477,21
20.056,23
20.0644,17
20.0727,11
20.0811,27
20.0894,24
20.0978,20
20.1061,26
20.1145,21
20.1229,23
20.1312,16
20.1396,26
20.1479,17
20.1563,10
20.1646,14
20.173,17
20.1813,22
20.1897,23
20.1981,17
20.2064,33
20.2148,24
20.2231,23
20.2315,20
20.2398,21
20.2482,18
20.2565,17
20.2649,24
20.2733,23
20.2816,21
20.29,26
20.2983,24
20.3067,18
20.315,17
20.3234,20
20.3317,24
20.3401,17
20.3485,26
20.3568,23
20.3652,29
20.3735,26
20.3819,21
20.3902,21
20.3986,16
20.4069,18
20.4153,17
20.4237,17
20.432,23
20.4404,21
20.4487,15
20.4571,26
20.4654,28
20.4738,17
20.4821,22
20.4905,21
20.4989,20
20.5072,27
20.5156,23
20.5239,17
20.5323,24
20.5406,24
20.549,21
20.5573,15
20.5657,11
20.5741,24
20.5824,21
20.5908,18
20.5991,29
20.6075,11
20.6158,21
20.6242,29
20.6325,22
20.6409,22
20.6493,11
20.6576,21
20.666,26
20.6743,18
20.6827,21
20.691,24
20.6994,23
20.7077,18
20.7161,22
20.7245,11
20.7328,21
20.7412,21
20.7495,22
20.7579,23
20.7662,17
20.7746,21
20.7829,18
20.7913,17
20.7997,22
20.808,22
20.8164,22
20.8247,20
20.8331,21
20.8414,27
20.8498,17
20.8581,13
20.8665,17
20.8749,24
20.8832,27
20.8916,24
20.8999,17
20.9083,16
20.9166,18
20.925,18
20.9333,20
20.9417,24
20.9501,18
20.9584,14
20.9668,15
20.9751,22
20.9835,26
20.9918,28
21.0002,28
21.0085,15
21.0169,20
21.0253,16
21.0336,26
21.042,20
21.0503,24
21.0587,16
21.067,17
21.0754,22
21.0837,23
21.0921,15
21.1005,26
21.1088,27
21.1172,16
21.1255,21
21.1339,20
21.1422,18
21.1506,21
21.1589,20
21.1673,21
21.1757,27
21.184,13
21.1924,21
21.2007,29
21.2091,20
21.2174,27
21.2258,21
21.2342,9
21.2425,30
21.2509,23
21.2592,22
21.2676,24
21.2759,21
21.2843,20
21.2926,30
21.301,18
21.3094,24
21.3177,22
21.3261,14
21.3344,34
21.3428,27
21.3511,14
21.3595,20
21.3678,18
21.3762,24
21.3846,16
21.3929,31
21.4013,14
21.4096,16
21.418,28
21.4263,26
21.4347,24
21.443,22
21.4514,20
21.4598,27
21.4681,27
21.4765,23
21.4848,15
21.4932,26
21.5015,16
21.5099,16
21.5182,22
21.5266,29
21.535,20
21.5433,27
21.5517,24
21.56,20
21.5684,28
21.5767,26
21.5851,20
21.5934,17
21.6018,16
21.6102,16
21.6185,27
21.6269,20
21.6352,30
21.6436,23
21.6519,17
21.6603,17
21.6686,23
21.677,10
21.6854,14
21.6937,28
21.7021,21
21.7104,16
21.7188,20
21.7271,13
21.7355,18
21.7438,27
21.7522,20
21.7606,20
21.7689,27
21.7773,22
21.7856,17
21.794,27
21.8023,16
21.8107,13
21.819,16
21.8274,13
21.8358,27
21.8441,23
21.8525,20
21.8608,15
21.8692,24
21.8775,23
21.8859,16
21.8942,31
21.9026,20
21.911,22
21.9193,29
21.9277,23
21.936,17
21.9444,18
21.9527,26
21.9611,17
21.9694,20
21.9778,17
21.9862,26
21.9945,18
22.0029,16
22.0112,26
22.0196,24
22.0279,29
22.0363,21
22.0446,24
22.053,16
22.0614,18
22.0697,27
22.0781,14
22.0864,33
22.0948,33
22.1031,26
22.1115,17
22.1198,22
22.1282,16
22.1366,20
22.1449,21
22.1533,24
22.1616,14
22.17,29
22.1783,24
22.1867,27
22.195,31
22.2034,24
22.2118,21
22.2201,21
22.2285,23
22.2368,22
22.2452,20
22.2535,15
22.2619,26
22.2702,17
22.2786,21
22.287,16
22.2953,24
22.3037,18
22.312,20
22.3204,22
22.3287,17
22.3371,21
22.3454,24
22.3538,18
22.3622,21
22.3705,20
22.3789,31
22.3872,16
22.3956,20
22.4039,20
22.4123,17
22.4207,21
22.429,16
22.4374,13
22.4457,9
22.4541,29
22.4624,36
22.4708,18
22.4791,26
22.4875,17
22.4959,20
22.5042,23
22.5126,18
22.5209,16
22.5293,30
22.5376,27
22.546,29
22.5543,14
22.5627,26
22.5711,18
22.5794,8
22.5878,16
22.5961,15
22.6045,23
22.6128,22
22.6212,14
22.6295,17
22.6379,18
22.6463,18
22.6546,20
22.663,18
22.6713,23
22.6797,17
22.688,18
22.6964,30
22.7047,35
22.7131,21
22.7215,18
22.7298,16
22.7382,16
22.7465,8
22.7549,28
22.7632,24
22.7716,18
22.7799,11
22.7883,13
22.7967,17
22.805,24
22.8134,18
22.8217,23
22.8301,15
22.8384,10
22.8468,28
22.8551,10
22.8635,24
22.8719,18
22.8802,11
22.8886,21
22.8969,13
22.9053,17
22.9136,24
22.922,15
22.9303,9
22.9387,22
22.9471,18
22.9554,18
22.9638,23
22.9721,27
22.9805,18
22.9888,20
22.9972,22
23.0055,26
23.0139,22
23.0223,20
23.0306,10
23.039,29
23.0473,20
23.0557,18
23.064,31
23.0724,17
23.0807,29
23.0891,28
23.0975,15
23.1058,21
23.1142,13
23.1225,17
23.1309,22
23.1392,16
23.1476,10
23.1559,27
23.1643,16
23.1727,16
23.181,17
23.1894,16
23.1977,14
23.2061,9
23.2144,13
23.2228,28
23.2311,16
23.2395,20
23.2479,24
23.2562,11
23.2646,11
23.2729,17
23.2813,21
23.2896,9
23.298,18
23.3063,24
23.3147,14
23.3231,18
23.3314,16
23.3398,16
23.3481,24
23.3565,24
23.3648,23
23.3732,17
23.3815,9
23.3899,17
23.3983,17
23.4066,13
23.415,15
23.4233,24
23.4317,13
23.44,20
23.4484,14
23.4567,18
23.4651,17
23.4735,17
23.4818,17
23.4902,18
23.4985,14
23.5069,13
23.5152,16
23.5236,18
23.532,20
23.5403,22
23.5487,22
23.557,11
23.5654,20
23.5737,17
23.5821,22
23.5904,14
23.5988,11
23.6072,16
23.6155,15
23.6239,11
23.6322,16
23.6406,17
23.6489,16
23.6573,23
23.6656,20
23.674,18
23.6824,13
23.6907,26
23.6991,16
23.7074,21
23.7158,26
23.7241,23
23.7325,15
23.7408,10
23.7492,16
23.7576,26
23.7659,16
23.7743,16
23.7826,13
23.791,16
23.7993,20
23.8077,17
23.816,21
23.8244,10
23.8328,13
23.8411,23
23.8495,11
23.8578,16
23.8662,14
23.8745,22
23.8829,21
23.8912,11
23.8996,23
23.908,23
23.9163,16
23.9247,16
23.933,15
23.9414,13
23.9497,11
23.9581,21
23.9664,14
23.9748,14
23.9832,17
23.9915,16
23.9999,15
24.0082,21
24.0166,26
24.0249,15
24.0333,18
24.0416,13
24.05,13
24.0584,18
24.0667,21
24.0751,14
24.0834,23
24.0918,16
24.1001,11
24.1085,20
24.1168,23
24.1252,14
24.1336,16
24.1419,14
24.1503,13
24.1586,11
24.167,18
24.1753,21
24.1837,11
24.192,22
24.2004,13
24.2088,14
24.2171,10
24.2255,20
24.2338,18
24.2422,17
24.2505,17
24.2589,16
24.2672,21
24.2756,16
24.284,15
24.2923,15
24.3007,14
24.309,24
24.3174,22
24.3257,26
24.3341,10
24.3424,13
24.3508,18
24.3592,18
24.3675,18
24.3759,13
24.3842,21
24.3926,17
24.4009,22
24.4093,15
24.4176,14
24.426,17
24.4344,7
24.4427,18
24.4511,21
24.4594,24
24.4678,18
24.4761,13
24.4845,14
24.4928,17
24.5012,20
24.5096,18
24.5179,17
24.5263,15
24.5346,16
24.543,13
24.5513,20
24.5597,26
24.568,21
24.5764,24
24.5848,24
24.5931,16
24.6015,14
24.6098,16
24.6182,11
24.6265,24
24.6349,24
24.6432,22
24.6516,16
24.66,24
24.6683,13
24.6767,18
24.685,13
24.6934,15
24.7017,18
24.7101,21
24.7185,14
24.7268,18
24.7352,14
24.7435,17
24.7519,15
24.7602,18
24.7686,16
24.7769,15
24.7853,11
24.7937,22
24.802,15
24.8104,22
24.8187,14
24.8271,11
24.8354,21
24.8438,22
24.8521,11
24.8605,15
24.8689,16
24.8772,13
24.8856,17
24.8939,18
24.9023,16
24.9106,14
24.919,14
24.9273,14
24.9357,11
24.9441,16
24.9524,21
24.9608,13
24.9691,18
24.9775,14
24.9858,20
24.9942,20
25.0025,10
25.0109,15
25.0193,14
25.0276,10
25.036,20
25.0443,16
25.0527,13
25.061,10
25.0694,11
25.0777,11
25.0861,17
25.0945,15
25.1028,13
25.1112,11
25.1195,16
25.1279,15
25.1362,22
25.1446,16
25.1529,8
25.1613,16
25.1697,16
25.178,13
25.1864,17
25.1947,16
25.2031,18
25.2114,15
25.2198,17
25.2281,15
25.2365,16
25.2449,16
25.2532,17
25.2616,16
25.2699,22
25.2783,11
25.2866,11
25.295,16
25.3033,14
25.3117,17
25.3201,15
25.3284,20
25.3368,16
25.3451,9
25.3535,17
25.3618,15
25.3702,15
25.3785,9
25.3869,10
25.3953,11
25.4036,16
25.412,8
25.4203,10
25.4287,23
25.437,5
25.4454,20
25.4537,11
25.4621,18
25.4705,8
25.4788,13
25.4872,10
25.4955,9
25.5039,11
25.5122,13
25.5206,8
25.5289,13
25.5373,11
25.5457,7
25.554,13
25.5624,15
25.5707,17
25.5791,14
25.5874,9
25.5958,10
25.6041,17
25.6125,14
25.6209,16
25.6292,21
25.6376,14
25.6459,14
25.6543,16
25.6626,20
25.671,16
25.6793,16
25.6877,10
25.6961,23
25.7044,20
25.7128,11
25.7211,22
25.7295,21
25.7378,11
25.7462,16
25.7545,7
25.7629,15
25.7713,7
25.7796,13
25.788,17
25.7963,14
25.8047,15
25.813,10
25.8214,14
25.8297,13
25.8381,8
25.8465,20
25.8548,11
25.8632,14
25.8715,17
25.8799,8
25.8882,14
25.8966,13
25.905,8
25.9133,11
25.9217,18
25.93,17
25.9384,7
25.9467,15
25.9551,15
25.9634,10
25.9718,9
25.9802,22
25.9885,11
25.9969,15
26.0052,13
26.0136,13
26.0219,13
26.0303,15
26.0386,16
26.047,10
26.0554,13
26.0637,16
26.0721,20
26.0804,17
26.0888,13
26.0971,18
26.1055,11
26.1138,18
26.1222,18
26.1306,20
26.1389,15
26.1473,9
26.1556,11
26.164,22
26.1723,23
26.1807,13
26.189,11
26.1974,10
26.2058,18
26.2141,15
26.2225,7
26.2308,9
26.2392,9
26.2475,23
26.2559,8
26.2642,11
26.2726,15
26.281,5
26.2893,13
26.2977,21
26.306,18
26.3144,14
26.3227,15
26.3311,16
26.3394,15
26.3478,11
26.3562,13
26.3645,13
26.3729,10
26.3812,14
26.3896,20
26.3979,17
26.4063,17
26.4146,16
26.423,15
26.4314,24
26.4397,8
26.4481,14
26.4564,14
26.4648,11
26.4731,15
26.4815,11
26.4898,13
26.4982,16
26.5066,14
26.5149,14
26.5233,22
26.5316,22
26.54,9
26.5483,15
26.5567,13
26.565,10
26.5734,16
26.5818,14
26.5901,15
26.5985,15
26.6068,15
26.6152,21
26.6235,16
26.6319,22
26.6402,14
26.6486,18
26.657,15
26.6653,15
26.6737,11
26.682,9
26.6904,22
26.6987,15
26.7071,13
26.7154,10
26.7238,8
26.7322,13
26.7405,4
26.7489,14
26.7572,13
26.7656,7
26.7739,16
26.7823,14
26.7906,18
26.799,11
26.8074,13
26.8157,10
26.8241,13
26.8324,13
26.8408,14
26.8491,11
26.8575,10
26.8658,15
26.8742,16
26.8826,21
26.8909,16
26.8993,8
26.9076,17
26.916,7
26.9243,18
26.9327,10
26.941,11
26.9494,8
26.9578,15
26.9661,14
26.9745,15
26.9828,11
26.9912,11
26.9995,10
27.0079,11
27.0162,8
27.0246,14
27.033,13
27.0413,15
27.0497,14
27.058,5
27.0664,18
27.0747,11
27.0831,23
27.0915,14
27.0998,18
27.1082,16
27.1165,21
27.1249,13
27.1332,14
27.1416,9
27.1499,10
27.1583,18
27.1667,15
27.175,20
27.1834,13
27.1917,11
27.2001,8
27.2084,20
27.2168,11
27.2251,16
27.2335,4
27.2419,24
27.2502,14
27.2586,21
27.2669,13
27.2753,20
27.2836,11
27.292,7
27.3003,18
27.3087,13
27.3171,16
27.3254,15
27.3338,10
27.3421,14
27.3505,17
27.3588,22
27.3672,20
27.3755,14
27.3839,16
27.3923,14
27.4006,15
27.409,16
27.4173,7
27.4257,21
27.434,14
27.4424,16
27.4507,14
27.4591,10
27.4675,17
27.4758,16
27.4842,14
27.4925,5
27.5009,11
27.5092,13
27.5176,16
27.5259,13
27.5343,8
27.5427,8
27.551,11
27.5594,10
27.5677,11
27.5761,13
27.5844,8
27.5928,23
27.6011,13
27.6095,15
27.6179,20
27.6262,8
27.6346,15
27.6429,14
27.6513,13
27.6596,15
27.668,17
27.6763,15
27.6847,11
27.6931,15
27.7014,9
27.7098,9
27.7181,14
27.7265,14
27.7348,7
27.7432,13
27.7515,16
27.7599,7
27.7683,11
27.7766,16
27.785,16
27.7933,16
27.8017,24
27.81,8
27.8184,17
27.8267,14
27.8351,13
27.8435,11
27.8518,23
27.8602,17
27.8685,13
27.8769,11
27.8852,18
27.8936,10
27.9019,16
27.9103,22
27.9187,20
27.927,11
27.9354,10
27.9437,16
27.9521,14
27.9604,9
27.9688,11
27.9771,15
27.9855,23
27.9939,10
28.0022,11
28.0106,13
28.0189,13
28.0273,11
28.0356,7
28.044,17
28.0523,23
28.0607,9
28.0691,14
28.0774,18
28.0858,20
28.0941,7
28.1025,11
28.1108,10
28.1192,10
28.1275,11
28.1359,15
28.1443,7
28.1526,21
28.161,7
28.1693,10
28.1777,14
28.186,16
28.1944,14
28.2027,8
28.2111,9
28.2195,14
28.2278,11
28.2362,18
28.2445,13
28.2529,10
28.2612,15
28.2696,13
28.278,9
28.2863,11
28.2947,15
28.303,16
28.3114,11
28.3197,18
28.3281,10
28.3364,11
28.3448,16
28.3532,17
28.3615,5
28.3699,20
28.3782,11
28.3866,17
28.3949,13
28.4033,15
28.4116,24
28.42,9
28.4284,24
28.4367,15
28.4451,15
28.4534,10
28.4618,18
28.4701,10
28.4785,10
28.4868,9
28.4952,10
28.5036,14
28.5119,11
28.5203,13
28.5286,21
28.537,10
28.5453,17
28.5537,22
28.562,7
28.5704,11
28.5788,16
28.5871,14
28.5955,11
28.6038,15
28.6122,15
28.6205,14
28.6289,16
28.6372,15
28.6456,17
28.654,13
28.6623,10
28.6707,18
28.679,10
28.6874,15
28.6957,8
28.7041,18
28.7124,11
28.7208,20
28.7292,10
28.7375,11
28.7459,15
28.7542,9
28.7626,21
28.7709,17
28.7793,10
28.7876,15
28.796,15
28.8044,14
28.8127,16
28.8211,14
28.8294,13
28.8378,17
28.8461,20
28.8545,8
28.8628,8
28.8712,10
28.8796,14
28.8879,14
28.8963,14
28.9046,9
28.913,10
28.9213,13
28.9297,11
28.938,15
28.9464,10
28.9548,16
28.9631,8
28.9715,13
28.9798,10
28.9882,20
28.9965,17
29.0049,16
29.0132,10
29.0216,10
29.03,10
29.0383,3
29.0467,26
29.055,13
29.0634,11
29.0717,13
29.0801,8
29.0884,10
29.0968,10
29.1052,15
29.1135,16
29.1219,10
29.1302,17
29.1386,9
29.1469,14
29.1553,10
29.1636,9
29.172,17
29.1804,13
29.1887,20
29.1971,18
29.2054,13
29.2138,18
29.2221,8
29.2305,13
29.2388,22
29.2472,11
29.2556,15
29.2639,7
29.2723,21
29.2806,11
29.289,9
29.2973,15
29.3057,9
29.314,13
29.3224,10
29.3308,16
29.3391,13
29.3475,14
29.3558,15
29.3642,15
29.3725,14
29.3809,10
29.3892,17
29.3976,9
29.406,9
29.4143,14
29.4227,11
29.431,20
29.4394,8
29.4477,18
29.4561,8
29.4645,9
29.4728,13
29.4812,14
29.4895,9
29.4979,15
29.5062,7
29.5146,15
29.5229,11
29.5313,13
29.5397,17
29.548,15
29.5564,9
29.5647,9
29.5731,11
29.5814,17
29.5898,14
29.5981,16
29.6065,14
29.6149,13
29.6232,15
29.6316,11
29.6399,15
29.6483,10
29.6566,15
29.665,4
29.6733,10
29.6817,13
29.6901,15
29.6984,21
29.7068,14
29.7151,5
29.7235,20
29.7318,16
29.7402,7
29.7485,17
29.7569,10
29.7653,9
29.7736,9
29.782,14
29.7903,16
29.7987,11
29.807,11
29.8154,9
29.8237,10
29.8321,10
29.8405,16
29.8488,13
29.8572,14
29.8655,18
29.8739,7
29.8822,10
29.8906,14
29.8989,13
29.9073,16
29.9157,14
29.924,11
29.9324,10
29.9407,7
29.9491,14
29.9574,16
29.9658,9
29.9741,14
29.9825,7
29.9909,14
29.9992,23
30.0076,14
30.0159,17
30.0243,16
30.0326,15
30.041,17
30.0493,11
30.0577,13
30.0661,10
30.0744,13
30.0828,15
30.0911,14
30.0995,14
30.1078,17
30.1162,8
30.1245,16
30.1329,17
30.1413,15
30.1496,8
30.158,10
30.1663,14
30.1747,14
30.183,16
30.1914,9
30.1997,13
30.2081,18
30.2165,13
30.2248,15
30.2332,15
30.2415,13
30.2499,11
30.2582,15
30.2666,11
30.2749,16
30.2833,14
30.2917,7
30.3,9
30.3084,9
30.3167,11
30.3251,10
30.3334,18
30.3418,10
30.3501,17
30.3585,20
30.3669,4
30.3752,21
30.3836,26
30.3919,21
30.4003,13
30.4086,16
30.417,7
30.4253,7
30.4337,13
30.4421,13
30.4504,14
30.4588,11
30.4671,9
30.4755,10
30.4838,14
30.4922,14
30.5005,8
30.5089,18
30.5173,9
30.5256,11
30.534,7
30.5423,5
30.5507,9
30.559,10
30.5674,11
30.5757,13
30.5841,7
30.5925,16
30.6008,10
30.6092,17
30.6175,13
30.6259,11
30.6342,13
30.6426,13
30.651,10
30.6593,9
30.6677,17
30.676,20
30.6844,14
30.6927,9
30.7011,16
30.7094,8
30.7178,11
30.7262,17
30.7345,8
30.7429,13
30.7512,16
30.7596,13
30.7679,10
30.7763,4
30.7846,20
30.793,10
30.8014,15
30.8097,15
30.8181,13
30.8264,10
30.8348,15
30.8431,10
30.8515,16
30.8598,10
30.8682,9
30.8766,8
30.8849,15
30.8933,14
30.9016,14
30.91,8
30.9183,15
30.9267,10
30.935,10
30.9434,10
30.9518,10
30.9601,13
30.9685,10
30.9768,15
30.9852,14
30.9935,14
31.0019,11
31.0102,8
31.0186,11
31.027,11
31.0353,9
31.0437,10
31.052,18
31.0604,9
31.0687,9
31.0771,13
31.0854,15
31.0938,10
31.1022,15
31.1105,17
31.1189,17
31.1272,13
31.1356,15
31.1439,14
31.1523,21
31.1606,16
31.169,15
31.1774,17
31.1857,8
31.1941,15
31.2024,14
31.2108,13
31.2191,16
31.2275,16
31.2358,16
31.2442,18
31.2526,20
31.2609,16
31.2693,11
31.2776,15
31.286,5
31.2943,16
31.3027,9
31.311,9
31.3194,13
31.3278,9
31.3361,17
31.3445,16
31.3528,17
31.3612,14
31.3695,20
31.3779,13
31.3862,9
31.3946,13
31.403,16
31.4113,7
31.4197,11
31.428,13
31.4364,16
31.4447,13
31.4531,20
31.4614,13
31.4698,14
31.4782,17
31.4865,9
31.4949,11
31.5032,15
31.5116,14
31.5199,11
31.5283,16
31.5366,11
31.545,9
31.5534,9
31.5617,10
31.5701,14
31.5784,14
31.5868,10
31.5951,10
31.6035,8
31.6118,10
31.6202,14
31.6286,7
31.6369,14
31.6453,15
31.6536,13
31.662,13
31.6703,9
31.6787,14
31.687,13
31.6954,13
31.7038,14
31.7121,18
31.7205,20
31.7288,10
31.7372,20
31.7455,16
31.7539,18
31.7623,9
31.7706,8
31.779,13
31.7873,8
31.7957,13
31.804,16
31.8124,9
31.8207,14
31.8291,9
31.8375,15
31.8458,10
31.8542,15
31.8625,10
31.8709,14
31.8792,13
31.8876,11
31.8959,7
31.9043,14
31.9127,15
31.921,13
31.9294,11
31.9377,21
31.9461,13
31.9544,10
31.9628,9
31.9711,9
31.9795,10
31.9879,14
31.9962,18
32.0046,9
32.0129,8
32.0213,16
32.0296,20
32.038,16
32.0463,13
32.0547,17
32.0631,9
32.0714,10
32.0798,10
32.0881,9
32.0965,10
32.1048,11
32.1132,16
32.1215,17
32.1299,7
32.1383,8
32.1466,13
32.155,16
32.1633,16
32.1717,9
32.18,16
32.1884,16
32.1967,17
32.2051,13
32.2135,17
32.2218,7
32.2302,17
32.2385,11
32.2469,8
32.2552,16
32.2636,15
32.2719,4
32.2803,14
32.2887,11
32.297,11
32.3054,14
32.3137,8
32.3221,5
32.3304,15
32.3388,7
32.3471,7
32.3555,9
32.3639,9
32.3722,10
32.3806,9
32.3889,7
32.3973,5
32.4056,16
32.414,10
32.4223,8
32.4307,11
32.4391,11
32.4474,17
32.4558,16
32.4641,7
32.4725,16
32.4808,2
32.4892,8
32.4975,16
32.5059,9
32.5143,10
32.5226,7
32.531,16
32.5393,8
32.5477,9
32.556,17
32.5644,9
32.5727,10
32.5811,11
32.5895,8
32.5978,11
32.6062,11
32.6145,13
32.6229,14
32.6312,7
32.6396,16
32.6479,9
32.6563,13
32.6647,18
32.673,11
32.6814,9
32.6897,9
32.6981,9
32.7064,9
32.7148,14
32.7231,15
32.7315,10
32.7399,8
32.7482,14
32.7566,8
32.7649,16
32.7733,17
32.7816,7
32.79,16
32.7983,10
32.8067,11
32.8151,13
32.8234,18
32.8318,14
32.8401,10
32.8485,9
32.8568,11
32.8652,14
32.8735,22
32.8819,14
32.8903,10
32.8986,13
32.907,17
32.9153,10
32.9237,14
32.932,22
32.9404,15
32.9488,18
32.9571,18
32.9655,9
32.9738,7
32.9822,21
32.9905,13
32.9989,9
33.0072,13
33.0156,14
33.024,8
33.0323,9
33.0407,16
33.049,14
33.0574,23
33.0657,11
33.0741,16
33.0824,7
33.0908,18
33.0992,5
33.1075,17
33.1159,15
33.1242,17
33.1326,10
33.1409,11
33.1493,9
33.1576,10
33.166,13
33.1744,10
33.1827,9
33.1911,11
33.1994,14
33.2078,13
33.2161,20
33.2245,21
33.2328,9
33.2412,16
33.2496,15
33.2579,8
33.2663,13
33.2746,7
33.283,15
33.2913,15
33.2997,11
33.308,7
33.3164,14
33.3248,14
33.3331,14
33.3415,8
33.3498,15
33.3582,5
33.3665,10
33.3749,10
33.3832,3
33.3916,11
33.4,15
33.4083,10
33.4167,10
33.425,11
33.4334,16
33.4417,13
33.4501,24
33.4584,16
33.4668,13
33.4752,11
33.4835,13
33.4919,18
33.5002,10
33.5086,13
33.5169,16
33.5253,9
33.5336,17
33.542,21
33.5504,18
33.5587,9
33.5671,11
33.5754,15
33.5838,11
33.5921,17
33.6005,11
33.6088,18
33.6172,14
33.6256,14
33.6339,11
33.6423,11
33.6506,16
33.659,16
33.6673,8
33.6757,14
33.684,15
33.6924,15
33.7008,9
33.7091,16
33.7175,9
33.7258,8
33.7342,13
33.7425,17
33.7509,8
33.7592,9
33.7676,3
33.776,15
33.7843,10
33.7927,9
33.801,13
33.8094,17
33.8177,15
33.8261,26
33.8344,16
33.8428,16
33.8512,21
33.8595,14
33.8679,15
33.8762,9
33.8846,18
33.8929,15
33.9013,14
33.9096,11
33.918,14
33.9264,13
33.9347,20
33.9431,18
33.9514,17
33.9598,20
33.9681,16
33.9765,13
33.9848,20
33.9932,24
34.0016,16
34.0099,5
34.0183,17
34.0266,14
34.035,8
34.0433,16
34.0517,17
34.06,14
34.0684,16
34.0768,11
34.0851,9
34.0935,11
34.1018,18
34.1102,10
34.1185,17
34.1269,20
34.1353,23
34.1436,16
34.152,20
34.1603,14
34.1687,16
34.177,16
34.1854,13
34.1937,11
34.2021,11
34.2105,17
34.2188,13
34.2272,15
34.2355,10
34.2439,16
34.2522,13
34.2606,13
34.2689,10
34.2773,14
34.2857,17
34.294,8
34.3024,15
34.3107,24
34.3191,17
34.3274,16
34.3358,15
34.3441,15
34.3525,17
34.3609,20
34.3692,15
34.3776,8
34.3859,16
34.3943,15
34.4026,15
34.411,9
34.4193,17
34.4277,14
34.4361,22
34.4444,9
34.4528,18
34.4611,16
34.4695,22
34.4778,18
34.4862,17
34.4945,21
34.5029,15
34.5113,16
34.5196,22
34.528,16
34.5363,9
34.5447,16
34.553,9
34.5614,9
34.5697,13
34.5781,9
34.5865,11
34.5948,10
34.6032,15
34.6115,15
34.6199,16
34.6282,21
34.6366,11
34.6449,16
34.6533,13
34.6617,10
34.67,11
34.6784,20
34.6867,14
34.6951,17
34.7034,13
34.7118,24
34.7201,15
34.7285,15
34.7369,14
34.7452,13
34.7536,17
34.7619,11
34.7703,16
34.7786,15
34.787,16
34.7953,17
34.8037,9
34.8121,16
34.8204,18
34.8288,23
34.8371,20
34.8455,18
34.8538,17
34.8622,15
34.8705,21
34.8789,23
34.8873,23
34.8956,18
34.904,33
34.9123,36
34.9207,27
34.929,28
34.9374,34
34.9457,33
34.9541,28
34.9625,45
34.9708,33
34.9792,46
34.9875,31
34.9959,46
35.0042,47
35.0126,37
35.0209,56
35.0293,73
35.0377,59
35.046,68
35.0544,87
35.0627,94
35.0711,107
35.0794,108
35.0878,133
35.0961,125
35.1045,164
35.1129,140
35.1212,172
35.1296,196
35.1379,191
35.1463,197
35.1546,222
35.163,196
35.1713,222
35.1797,149
35.1881,164
35.1964,174
35.2048,138
35.2131,116
35.2215,116
35.2298,122
35.2382,105
35.2465,98
35.2549,77
35.2633,104
35.2716,73
35.28,56
35.2883,45
35.2967,53
35.305,27
35.3134,31
35.3218,28
35.3301,26
35.3385,23
35.3468,23
35.3552,23
35.3635,18
35.3719,16
35.3802,17
35.3886,17
35.397,15
35.4053,14
35.4137,18
35.422,13
35.4304,14
35.4387,10
35.4471,10
35.4554,17
35.4638,22
35.4722,13
35.4805,17
35.4889,10
35.4972,20
35.5056,15
35.5139,5
35.5223,21
35.5306,11
35.539,14
35.5474,21
35.5557,9
35.5641,13
35.5724,10
35.5808,17
35.5891,8
35.5975,8
35.6058,11
35.6142,14
35.6226,24
35.6309,16
35.6393,13
35.6476,11
35.656,15
35.6643,11
35.6727,10
35.681,11
35.6894,4
35.6978,15
35.7061,14
35.7145,8
35.7228,13
35.7312,21
35.7395,18
35.7479,11
35.7562,20
35.7646,8
35.773,14
35.7813,14
35.7897,16
35.798,13
35.8064,18
35.8147,7
35.8231,16
35.8314,11
35.8398,5
35.8482,9
35.8565,16
35.8649,9
35.8732,18
35.8816,5
35.8899,20
35.8983,15
35.9066,10
35.915,13
35.9234,16
35.9317,11
35.9401,14
35.9484,15
35.9568,17
35.9651,18
35.9735,16
35.9818,8
35.9902,11
35.9986,7
36.0069,7
36.0153,10
36.0236,9
36.032,21
36.0403,10
36.0487,10
36.057,16
36.0654,16
36.0738,5
36.0821,7
36.0905,11
36.0988,15
36.1072,15
36.1155,11
36.1239,18
36.1322,8
36.1406,13
36.149,15
36.1573,15
36.1657,8
36.174,13
36.1824,18
36.1907,17
36.1991,15
36.2074,15
36.2158,17
36.2242,15
36.2325,13
36.2409,11
36.2492,10
36.2576,16
36.2659,13
36.2743,10
36.2826,15
36.291,8
36.2994,13
36.3077,10
36.3161,14
36.3244,10
36.3328,8
36.3411,18
36.3495,11
36.3578,18
36.3662,15
36.3746,13
36.3829,7
36.3913,11
36.3996,22
36.408,13
36.4163,16
36.4247,10
36.433,8
36.4414,10
36.4498,11
36.4581,14
36.4665,10
36.4748,8
36.4832,14
36.4915,5
36.4999,13
36.5083,14
36.5166,9
36.525,18
36.5333,7
36.5417,11
36.55,18
36.5584,18
36.5667,7
36.5751,11
36.5835,11
36.5918,18
36.6002,11
36.6085,5
36.6169,18
36.6252,13
36.6336,8
36.6419,9
36.6503,13
36.6587,13
36.667,13
36.6754,16
36.6837,18
36.6921,9
36.7004,13
36.7088,10
36.7171,13
36.7255,14
36.7339,8
36.7422,10
36.7506,16
36.7589,9
36.7673,18
36.7756,15
36.784,15
36.7923,15
36.8007,4
36.8091,8
36.8174,20
36.8258,17
36.8341,9
36.8425,5
36.8508,8
36.8592,13
36.8675,14
36.8759,16
36.8843,11
36.8926,16
36.901,5
36.9093,11
36.9177,13
36.926,10
36.9344,17
36.9427,5
36.9511,8
36.9595,16
36.9678,18
36.9762,15
36.9845,11
36.9929,16
37.0012,13
37.0096,14
37.0179,9
37.0263,13
37.0347,15
37.043,9
37.0514,14
37.0597,15
37.0681,14
37.0764,14
37.0848,15
37.0931,17
37.1015,13
37.1099,17
37.1182,13
37.1266,10
37.1349,20
37.1433,14
37.1516,14
37.16,4
37.1683,18
37.1767,13
37.1851,13
37.1934,13
37.2018,16
37.2101,9
37.2185,17
37.2268,5
37.2352,14
37.2435,15
37.2519,11
37.2603,11
37.2686,8
37.277,14
37.2853,11
37.2937,21
37.302,9
37.3104,22
37.3187,4
37.3271,11
37.3355,5
37.3438,13
37.3522,8
37.3605,13
37.3689,23
37.3772,13
37.3856,18
37.3939,18
37.4023,8
37.4107,13
37.419,14
37.4274,21
37.4357,14
37.4441,13
37.4524,14
37.4608,14
37.4691,8
37.4775,14
37.4859,9
37.4942,14
37.5026,14
37.5109,11
37.5193,10
37.5276,9
37.536,20
37.5443,16
37.5527,11
37.5611,9
37.5694,11
37.5778,10
37.5861,15
37.5945,9
37.6028,4
37.6112,9
37.6195,7
37.6279,15
37.6363,11
37.6446,16
37.653,17
37.6613,23
37.6697,13
37.678,14
37.6864,16
37.6948,8
37.7031,16
37.7115,16
37.7198,10
37.7282,13
37.7365,8
37.7449,16
37.7532,9
37.7616,21
37.77,13
37.7783,10
37.7867,9
37.795,13
37.8034,8
37.8117,11
37.8201,14
37.8284,15
37.8368,8
37.8452,20
37.8535,18
37.8619,18
37.8702,20
37.8786,10
37.8869,14
37.8953,13
37.9036,17
37.912,3
37.9204,18
37.9287,8
37.9371,14
37.9454,21
37.9538,22
37.9621,15
37.9705,18
37.9788,17
37.9872,8
37.9956,15
38.0039,15
38.0123,8
38.0206,13
38.029,13
38.0373,15
38.0457,18
38.054,9
38.0624,15
38.0708,10
38.0791,18
38.0875,18
38.0958,14
38.1042,9
38.1125,14
38.1209,15
38.1292,22
38.1376,11
38.146,20
38.1543,20
38.1627,24
38.171,23
38.1794,22
38.1877,28
38.1961,30
38.2044,39
38.2128,49
38.2212,43
38.2295,48
38.2379,62
38.2462,60
38.2546,66
38.2629,79
38.2713,60
38.2796,103
38.288,94
38.2964,97
38.3047,120
38.3131,119
38.3214,114
38.3298,91
38.3381,124
38.3465,129
38.3548,111
38.3632,99
38.3716,79
38.3799,74
38.3883,71
38.3966,79
38.405,66
38.4133,65
38.4217,56
38.43,58
38.4384,53
38.4468,53
38.4551,60
38.4635,37
38.4718,23
38.4802,26
38.4885,13
38.4969,20
38.5052,20
38.5136,15
38.522,17
38.5303,22
38.5387,16
38.547,16
38.5554,9
38.5637,22
38.5721,8
38.5804,13
38.5888,11
38.5972,15
38.6055,11
38.6139,16
38.6222,13
38.6306,10
38.6389,9
38.6473,17
38.6556,11
38.664,15
38.6724,20
38.6807,17
38.6891,11
38.6974,15
38.7058,18
38.7141,15
38.7225,17
38.7308,15
38.7392,15
38.7476,13
38.7559,14
38.7643,13
38.7726,21
38.781,13
38.7893,15
38.7977,17
38.806,14
38.8144,13
38.8228,20
38.8311,15
38.8395,16
38.8478,15
38.8562,10
38.8645,14
38.8729,21
38.8813,23
38.8896,11
38.898,14
38.9063,11
38.9147,9
38.923,17
38.9314,21
38.9397,15
38.9481,20
38.9565,11
38.9648,23
38.9732,22
38.9815,24
38.9899,30
38.9982,17
39.0066,21
39.0149,24
39.0233,28
39.0317,20
39.04,22
39.0484,21
39.0567,17
39.0651,22
39.0734,20
39.0818,18
39.0901,29
39.0985,22
39.1069,24
39.1152,27
39.1236,20
39.1319,22
39.1403,15
39.1486,27
39.157,29
39.1653,20
39.1737,31
39.1821,23
39.1904,30
39.1988,24
39.2071,27
39.2155,23
39.2238,27
39.2322,31
39.2405,23
39.2489,23
39.2573,24
39.2656,20
39.274,26
39.2823,14
39.2907,16
39.299,16
39.3074,26
39.3157,20
39.3241,18
39.3325,20
39.3408,23
39.3492,22
39.3575,18
39.3659,24
39.3742,13
39.3826,18
39.3909,24
39.3993,26
39.4077,23
39.416,24
39.4244,29
39.4327,17
39.4411,27
39.4494,31
39.4578,27
39.4661,28
39.4745,26
39.4829,29
39.4912,21
39.4996,29
39.5079,17
39.5163,29
39.5246,28
39.533,23
39.5413,23
39.5497,18
39.5581,20
39.5664,20
39.5748,21
39.5831,16
39.5915,24
39.5998,16
39.6082,17
39.6165,16
39.6249,20
39.6333,14
39.6416,14
39.65,16
39.6583,11
39.6667,16
39.675,15
39.6834,15
39.6917,17
39.7001,21
39.7085,16
39.7168,13
39.7252,14
39.7335,15
39.7419,16
39.7502,16
39.7586,17
39.7669,17
39.7753,20
39.7837,10
39.792,27
39.8004,13
39.8087,22
39.8171,24
39.8254,18
39.8338,21
39.8421,15
39.8505,17
39.8589,23
39.8672,17
39.8756,14
39.8839,14
39.8923,18
39.9006,22
39.909,26
39.9173,28
39.9257,33
39.9341,31
39.9424,22
39.9508,26
39.9591,27
39.9675,31
39.9758,52
39.9842,42
39.9925,36
40.0009,59
40.0093,58
40.0176,46
40.026,75
40.0343,81
40.0427,71
40.051,77
40.0594,94
40.0678,104
40.0761,142
40.0845,114
40.0928,122
40.1012,155
40.1095,212
40.1179,194
40.1262,202
40.1346,206
40.143,241
40.1513,244
40.1597,238
40.168,291
40.1764,344
40.1847,371
40.1931,353
40.2014,408
40.2098,496
40.2182,542
40.2265,507
40.2349,524
40.2432,528
40.2516,494
40.2599,443
40.2683,418
40.2766,337
40.285,325
40.2934,280
40.3017,255
40.3101,276
40.3184,242
40.3268,261
40.3351,226
40.3435,247
40.3518,215
40.3602,203
40.3686,172
40.3769,161
40.3853,119
40.3936,98
40.402,72
40.4103,48
40.4187,33
40.427,33
40.4354,36
40.4438,30
40.4521,30
40.4605,18
40.4688,18
40.4772,22
40.4855,17
40.4939,14
40.5022,16
40.5106,16
40.519,26
40.5273,20
40.5357,23
40.544,17
40.5524,16
40.5607,13
40.5691,11
40.5774,15
40.5858,16
40.5942,16
40.6025,17
40.6109,14
40.6192,14
40.6276,10
40.6359,17
40.6443,23
40.6526,22
40.661,7
40.6694,5
40.6777,14
40.6861,13
40.6944,9
40.7028,15
40.7111,14
40.7195,20
40.7278,13
40.7362,13
40.7446,14
40.7529,10
40.7613,11
40.7696,9
40.778,8
40.7863,15
40.7947,9
40.803,15
40.8114,15
40.8198,15
40.8281,17
40.8365,13
40.8448,8
40.8532,10
40.8615,15
40.8699,16
40.8782,10
40.8866,11
40.895,7
40.9033,11
40.9117,7
40.92,14
40.9284,14
40.9367,5
40.9451,17
40.9534,16
40.9618,5
40.9702,7
40.9785,14
40.9869,8
40.9952,10
41.0036,8
41.0119,10
41.0203,18
41.0286,14
41.037,15
41.0454,10
41.0537,9
41.0621,18
41.0704,9
41.0788,10
41.0871,16
41.0955,7
41.1038,13
41.1122,24
41.1206,5
41.1289,11
41.1373,15
41.1456,18
41.154,4
41.1623,15
41.1707,15
41.1791,13
41.1874,15
41.1958,10
41.2041,10
41.2125,18
41.2208,9
41.2292,11
41.2375,13
41.2459,9
41.2543,11
41.2626,7
41.271,14
41.2793,10
41.2877,13
41.296,11
41.3044,15
41.3127,20
41.3211,9
41.3295,10
41.3378,13
41.3462,4
41.3545,11
41.3629,18
41.3712,13
41.3796,15
41.3879,11
41.3963,10
41.4047,13
41.413,15
41.4214,8
41.4297,8
41.4381,15
41.4464,5
41.4548,15
41.4631,16
41.4715,9
41.4799,22
41.4882,10
41.4966,11
41.5049,11
41.5133,14
41.5216,11
41.53,15
41.5383,8
41.5467,11
41.5551,10
41.5634,18
41.5718,9
41.5801,10
41.5885,11
41.5968,13
41.6052,20
41.6135,11
41.6219,14
41.6303,16
41.6386,16
41.647,11
41.6553,17
41.6637,10
41.672,17
41.6804,13
41.6887,8
41.6971,11
41.7055,10
41.7138,11
41.7222,13
41.7305,7
41.7389,8
41.7472,3
41.7556,22
41.7639,8
41.7723,11
41.7807,8
41.789,11
41.7974,11
41.8057,10
41.8141,9
41.8224,9
41.8308,5
41.8391,15
41.8475,8
41.8559,8
41.8642,11
41.8726,11
41.8809,13
41.8893,11
41.8976,7
41.906,8
41.9143,2
41.9227,10
41.9311,15
41.9394,14
41.9478,10
41.9561,13
41.9645,15
41.9728,9
41.9812,13
41.9895,5
41.9979,14
42.0063,11
42.0146,9
42.023,3
42.0313,15
42.0397,15
42.048,9
42.0564,13
42.0647,14
42.0731,8
42.0815,11
42.0898,10
42.0982,11
42.1065,16
42.1149,9
42.1232,11
42.1316,4
42.1399,7
42.1483,21
42.1567,16
42.165,9
42.1734,7
42.1817,18
42.1901,14
42.1984,14
42.2068,11
42.2151,15
42.2235,10
42.2319,8
42.2402,10
42.2486,5
42.2569,10
42.2653,13
42.2736,7
42.282,11
42.2903,7
42.2987,15
42.3071,13
42.3154,9
42.3238,8
42.3321,11
42.3405,4
42.3488,15
42.3572,11
42.3656,10
42.3739,13
42.3823,10
42.3906,8
42.399,17
42.4073,14
42.4157,15
42.424,15
42.4324,11
42.4408,9
42.4491,11
42.4575,10
42.4658,11
42.4742,17
42.4825,11
42.4909,20
42.4992,10
42.5076,7
42.516,13
42.5243,14
42.5327,17
42.541,8
42.5494,9
42.5577,10
42.5661,10
42.5744,13
42.5828,8
42.5912,7
42.5995,11
42.6079,11
42.6162,11
42.6246,11
42.6329,5
42.6413,15
42.6496,14
42.658,8
42.6664,11
42.6747,14
42.6831,7
42.6914,8
42.6998,8
42.7081,13
42.7165,11
42.7248,13
42.7332,9
42.7416,11
42.7499,9
42.7583,7
42.7666,17
42.775,7
42.7833,13
42.7917,15
42.8,4
42.8084,11
42.8168,9
42.8251,11
42.8335,14
42.8418,14
42.8502,7
42.8585,5
42.8669,17
42.8752,11
42.8836,10
42.892,16
42.9003,13
42.9087,14
42.917,15
42.9254,14
42.9337,11
42.9421,4
42.9504,9
42.9588,11
42.9672,9
42.9755,11
42.9839,11
42.9922,9
43.0006,7
43.0089,8
43.0173,7
43.0256,16
43.034,7
43.0424,4
43.0507,13
43.0591,9
43.0674,8
43.0758,13
43.0841,11
43.0925,13
43.1008,5
43.1092,8
43.1176,10
43.1259,9
43.1343,14
43.1426,9
43.151,8
43.1593,14
43.1677,14
43.176,13
43.1844,15
43.1928,13
43.2011,11
43.2095,11
43.2178,17
43.2262,13
43.2345,15
43.2429,11
43.2512,21
43.2596,10
43.268,11
43.2763,17
43.2847,11
43.293,10
43.3014,20
43.3097,15
43.3181,9
43.3264,13
43.3348,14
43.3432,20
43.3515,14
43.3599,9
43.3682,20
43.3766,11
43.3849,8
43.3933,14
43.4016,10
43.41,16
43.4184,9
43.4267,17
43.4351,7
43.4434,10
43.4518,10
43.4601,21
43.4685,10
43.4768,14
43.4852,15
43.4936,14
43.5019,8
43.5103,16
43.5186,9
43.527,9
43.5353,8
43.5437,11
43.5521,20
43.5604,8
43.5688,7
43.5771,10
43.5855,9
43.5938,7
43.6022,10
43.6105,8
43.6189,8
43.6273,8
43.6356,13
43.644,10
43.6523,8
43.6607,17
43.669,11
43.6774,16
43.6857,15
43.6941,11
43.7025,4
43.7108,15
43.7192,14
43.7275,7
43.7359,15
43.7442,9
43.7526,8
43.7609,13
43.7693,9
43.7777,10
43.786,21
43.7944,10
43.8027,16
43.8111,11
43.8194,8
43.8278,13
43.8361,15
43.8445,13
43.8529,10
43.8612,11
43.8696,5
43.8779,11
43.8863,21
43.8946,15
43.903,15
43.9113,3
43.9197,9
43.9281,8
43.9364,14
43.9448,14
43.9531,5
43.9615,11
43.9698,13
43.9782,7
43.9865,10
43.9949,17
44.0033,9
44.0116,9
44.02,7
44.0283,15
44.0367,16
44.045,15
44.0534,3
44.0617,7
44.0701,8
44.0785,15
44.0868,11
44.0952,21
44.1035,11
44.1119,11
44.1202,10
44.1286,8
44.1369,11
44.1453,5
44.1537,11
44.162,11
44.1704,10
44.1787,15
44.1871,11
44.1954,14
44.2038,8
44.2121,11
44.2205,13
44.2289,10
44.2372,4
44.2456,11
44.2539,9
44.2623,17
44.2706,14
44.279,18
44.2873,13
44.2957,16
44.3041,14
44.3124,9
44.3208,15
44.3291,10
44.3375,4
44.3458,14
44.3542,5
44.3625,9
44.3709,9
44.3793,8
44.3876,10
44.396,10
44.4043,9
44.4127,11
44.421,8
44.4294,11
44.4377,10
44.4461,13
44.4545,7
44.4628,15
44.4712,13
44.4795,13
44.4879,13
44.4962,10
44.5046,15
44.5129,11
44.5213,11
44.5297,10
44.538,16
44.5464,8
44.5547,8
44.5631,17
44.5714,9
44.5798,7
44.5881,9
44.5965,11
44.6049,13
44.6132,13
44.6216,16
44.6299,10
44.6383,11
44.6466,8
44.655,14
44.6633,13
44.6717,4
44.6801,20
44.6884,9
44.6968,17
44.7051,3
44.7135,15
44.7218,10
44.7302,7
44.7386,8
44.7469,7
44.7553,11
44.7636,15
44.772,8
44.7803,16
44.7887,15
44.797,13
44.8054,14
44.8138,9
44.8221,7
44.8305,15
44.8388,7
44.8472,16
44.8555,16
44.8639,14
44.8722,17
44.8806,5
44.889,14
44.8973,13
44.9057,11
44.914,4
44.9224,14
44.9307,13
44.9391,11
44.9474,7
44.9558,13
44.9642,13
44.9725,8
44.9809,14
44.9892,9
44.9976,10
45.0059,11
45.0143,10
45.0226,11
45.031,11
45.0394,7
45.0477,9
45.0561,8
45.0644,8
45.0728,17
45.0811,13
45.0895,11
45.0978,11
45.1062,7
45.1146,13
45.1229,8
45.1313,10
45.1396,14
45.148,10
45.1563,17
45.1647,11
45.173,16
45.1814,14
45.1898,8
45.1981,11
45.2065,8
45.2148,14
45.2232,9
45.2315,17
45.2399,17
45.2482,15
45.2566,7
45.265,21
45.2733,11
45.2817,7
45.29,4
45.2984,16
45.3067,9
45.3151,18
45.3234,11
45.3318,11
45.3402,7
45.3485,9
45.3569,13
45.3652,13
45.3736,9
45.3819,5
45.3903,13
45.3986,13
45.407,8
45.4154,15
45.4237,18
45.4321,8
45.4404,9
45.4488,9
45.4571,9
45.4655,13
45.4738,13
45.4822,13
45.4906,14
45.4989,10
45.5073,20
45.5156,13
45.524,8
45.5323,10
45.5407,9
45.549,14
45.5574,11
45.5658,11
45.5741,10
45.5825,10
45.5908,4
45.5992,4
45.6075,18
45.6159,7
45.6242,18
45.6326,8
45.641,11
45.6493,15
45.6577,10
45.666,15
45.6744,11
45.6827,9
45.6911,9
45.6994,10
45.7078,3
45.7162,10
45.7245,9
45.7329,8
45.7412,7
45.7496,9
45.7579,10
45.7663,5
45.7746,13
45.783,11
45.7914,11
45.7997,16
45.8081,11
45.8164,11
45.8248,16
45.8331,15
45.8415,10
45.8498,7
45.8582,16
45.8666,13
45.8749,15
45.8833,14
45.8916,8
45.9,16
45.9083,8
45.9167,11
45.9251,7
45.9334,10
45.9418,8
45.9501,10
45.9585,11
45.9668,11
45.9752,15
45.9835,10
45.9919,14
46.0003,14
46.0086,15
46.017,7
46.0253,14
46.0337,10
46.042,7
46.0504,11
46.0587,8
46.0671,21
46.0755,11
46.0838,13
46.0922,14
46.1005,14
46.1089,8
46.1172,8
46.1256,16
46.1339,13
46.1423,7
46.1507,5
46.159,17
46.1674,18
46.1757,7
46.1841,8
46.1924,13
46.2008,9
46.2091,7
46.2175,11
46.2259,11
46.2342,11
46.2426,13
46.2509,13
46.2593,7
46.2676,3
46.276,15
46.2843,15
46.2927,10
46.3011,11
46.3094,16
46.3178,9
46.3261,16
46.3345,11
46.3428,11
46.3512,14
46.3595,9
46.3679,18
46.3763,11
46.3846,10
46.393,18
46.4013,11
46.4097,10
46.418,9
46.4264,11
46.4347,10
46.4431,13
46.4515,8
46.4598,10
46.4682,14
46.4765,8
46.4849,7
46.4932,5
46.5016,20
46.5099,10
46.5183,14
46.5267,15
46.535,11
46.5434,13
46.5517,8
46.5601,15
46.5684,9
46.5768,9
46.5851,10
46.5935,8
46.6019,14
46.6102,15
46.6186,10
46.6269,13
46.6353,7
46.6436,8
46.652,9
46.6603,14
46.6687,11
46.6771,11
46.6854,9
46.6938,13
46.7021,14
46.7105,17
46.7188,10
46.7272,7
46.7355,10
46.7439,15
46.7523,10
46.7606,10
46.769,10
46.7773,18
46.7857,17
46.794,13
46.8024,14
46.8107,17
46.8191,13
46.8275,10
46.8358,10
46.8442,7
46.8525,8
46.8609,15
46.8692,15
46.8776,14
46.8859,9
46.8943,9
46.9027,7
46.911,8
46.9194,20
46.9277,11
46.9361,14
46.9444,10
46.9528,17
46.9611,13
46.9695,14
46.9779,14
46.9862,8
46.9946,13
47.0029,11
47.0113,15
47.0196,13
47.028,7
47.0363,10
47.0447,9
47.0531,11
47.0614,16
47.0698,10
47.0781,7
47.0865,8
47.0948,8
47.1032,10
47.1116,13
47.1199,11
47.1283,9
47.1366,13
47.145,15
47.1533,9
47.1617,7
47.17,7
47.1784,7
47.1868,10
47.1951,16
47.2035,9
47.2118,9
47.2202,10
47.2285,16
47.2369,16
47.2452,14
47.2536,8
47.262,13
47.2703,8
47.2787,11
47.287,7
47.2954,10
47.3037,22
47.3121,9
47.3204,10
47.3288,5
47.3372,18
47.3455,10
47.3539,14
47.3622,5
47.3706,14
47.3789,16
47.3873,7
47.3956,8
47.404,15
47.4124,7
47.4207,8
47.4291,20
47.4374,8
47.4458,7
47.4541,10
47.4625,10
47.4708,15
47.4792,11
47.4876,4
47.4959,7
47.5043,11
47.5126,10
47.521,11
47.5293,9
47.5377,9
47.546,11
47.5544,11
47.5628,5
47.5711,10
47.5795,5
47.5878,7
47.5962,8
47.6045,11
47.6129,9
47.6212,14
47.6296,11
47.638,13
47.6463,9
47.6547,8
47.663,13
47.6714,4
47.6797,4
47.6881,7
47.6964,7
47.7048,14
47.7132,15
47.7215,10
47.7299,11
47.7382,5
47.7466,13
47.7549,11
47.7633,11
47.7716,10
47.78,8
47.7884,13
47.7967,14
47.8051,13
47.8134,13
47.8218,14
47.8301,9
47.8385,9
47.8468,7
47.8552,9
47.8636,9
47.8719,11
47.8803,11
47.8886,5
47.897,7
47.9053,7
47.9137,14
47.922,8
47.9304,9
47.9388,3
47.9471,8
47.9555,16
47.9638,16
47.9722,10
47.9805,10
47.9889,9
47.9972,10
48.0056,5
48.014,8
48.0223,8
48.0307,8
48.039,8
48.0474,7
48.0557,16
48.0641,8
48.0724,8
48.0808,8
48.0892,11
48.0975,2
48.1059,11
48.1142,14
48.1226,7
48.1309,11
48.1393,8
48.1476,14
48.156,16
48.1644,9
48.1727,15
48.1811,16
48.1894,9
48.1978,14
48.2061,10
48.2145,10
48.2228,5
48.2312,14
48.2396,11
48.2479,13
48.2563,11
48.2646,18
48.273,11
48.2813,14
48.2897,9
48.2981,13
48.3064,5
48.3148,15
48.3231,10
48.3315,9
48.3398,14
48.3482,14
48.3565,14
48.3649,17
48.3733,13
48.3816,13
48.39,10
48.3983,10
48.4067,13
48.415,8
48.4234,10
48.4317,7
48.4401,13
48.4485,14
48.4568,10
48.4652,17
48.4735,17
48.4819,7
48.4902,11
48.4986,10
48.5069,3
48.5153,14
48.5237,9
48.532,10
48.5404,5
48.5487,11
48.5571,10
48.5654,5
48.5738,9
48.5821,5
48.5905,14
48.5989,10
48.6072,10
48.6156,10
48.6239,8
48.6323,8
48.6406,10
48.649,8
48.6573,13
48.6657,10
48.6741,9
48.6824,10
48.6908,9
48.6991,15
48.7075,20
48.7158,13
48.7242,7
48.7325,14
48.7409,4
48.7493,15
48.7576,14
48.766,13
48.7743,9
48.7827,9
48.791,16
48.7994,8
48.8077,4
48.8161,15
48.8245,9
48.8328,11
48.8412,17
48.8495,13
48.8579,9
48.8662,15
48.8746,10
48.8829,9
48.8913,11
48.8997,8
48.908,4
48.9164,15
48.9247,11
48.9331,14
48.9414,5
48.9498,17
48.9581,9
48.9665,14
48.9749,7
48.9832,8
48.9916,14
48.9999,11
49.0083,11
49.0166,4
49.025,13
49.0333,7
49.0417,18
49.0501,7
49.0584,9
49.0668,8
49.0751,13
49.0835,11
49.0918,14
49.1002,8
49.1085,15
49.1169,5
49.1253,10
49.1336,15
49.142,7
49.1503,9
49.1587,9
49.167,4
49.1754,10
49.1837,10
49.1921,10
49.2005,4
49.2088,10
49.2172,7
49.2255,9
49.2339,14
49.2422,14
49.2506,14
49.2589,8
49.2673,8
49.2757,8
49.284,15
49.2924,15
49.3007,8
49.3091,5
49.3174,4
49.3258,11
49.3341,8
49.3425,17
49.3509,9
49.3592,7
49.3676,11
49.3759,5
49.3843,16
49.3926,13
49.401,17
49.4094,10
49.4177,7
49.4261,11
49.4344,3
49.4428,10
49.4511,7
49.4595,14
49.4678,15
49.4762,17
49.4846,8
49.4929,17
49.5013,8
49.5096,4
49.518,7
49.5263,5
49.5347,9
49.543,8
49.5514,10
49.5598,10
49.5681,4
49.5765,5
49.5848,10
49.5932,17
49.6015,10
49.6099,10
49.6182,10
49.6266,9
49.635,5
49.6433,9
49.6517,4
49.66,9
49.6684,11
49.6767,16
49.6851,4
49.6934,8
49.7018,5
49.7102,7
49.7185,15
49.7269,8
49.7352,16
49.7436,13
49.7519,9
49.7603,9
49.7686,13
49.777,11
49.7854,11
49.7937,7
49.8021,11
49.8104,7
49.8188,17
49.8271,9
49.8355,4
49.8438,17
49.8522,13
49.8606,10
49.8689,8
49.8773,4
49.8856,13
49.894,11
49.9023,11
49.9107,20
49.919,10
49.9274,7
49.9358,4
49.9441,11
49.9525,8
49.9608,14
49.9692,13
49.9775,14
49.9859,10
49.9942,14
50.0026,8
50.011,9
50.0193,9
50.0277,17
50.036,8
50.0444,10
50.0527,7
50.0611,11
50.0694,10
50.0778,14
50.0862,14
50.0945,13
50.1029,17
50.1112,13
50.1196,8
50.1279,11
50.1363,15
50.1446,11
50.153,11
50.1614,8
50.1697,8
50.1781,4
50.1864,14
50.1948,11
50.2031,9
50.2115,11
50.2198,7
50.2282,14
50.2366,14
50.2449,14
50.2533,11
50.2616,17
50.27,13
50.2783,7
50.2867,5
50.295,10
50.3034,21
50.3118,14
50.3201,16
50.3285,11
50.3368,5
50.3452,9
50.3535,8
50.3619,17
50.3702,8
50.3786,14
50.387,9
50.3953,7
50.4037,11
50.412,10
50.4204,10
50.4287,10
50.4371,5
50.4454,8
50.4538,11
50.4622,16
50.4705,9
50.4789,7
50.4872,14
50.4956,13
50.5039,10
50.5123,20
50.5206,14
50.529,2
50.5374,7
50.5457,11
50.5541,13
50.5624,11
50.5708,9
50.5791,8
50.5875,8
50.5959,10
50.6042,9
50.6126,10
50.6209,9
50.6293,13
50.6376,11
50.646,14
50.6543,9
50.6627,9
50.6711,10
50.6794,10
50.6878,15
50.6961,15
50.7045,8
50.7128,10
50.7212,11
50.7295,8
50.7379,16
50.7463,7
50.7546,10
50.763,17
50.7713,13
50.7797,7
50.788,8
50.7964,13
50.8047,11
50.8131,13
50.8215,17
50.8298,8
50.8382,13
50.8465,8
50.8549,16
50.8632,17
50.8716,15
50.8799,7
50.8883,8
50.8967,13
50.905,16
50.9134,2
50.9217,9
50.9301,14
50.9384,18
50.9468,10
50.9551,8
50.9635,11
50.9719,16
50.9802,5
50.9886,10
50.9969,9
51.0053,14
51.0136,8
51.022,11
51.0303,14
51.0387,5
51.0471,10
51.0554,8
51.0638,11
51.0721,9
51.0805,16
51.0888,7
51.0972,8
51.1055,7
51.1139,8
51.1223,7
51.1306,10
51.139,11
51.1473,10
51.1557,4
51.164,4
51.1724,10
51.1807,14
51.1891,5
51.1975,13
51.2058,13
51.2142,8
51.2225,5
51.2309,10
51.2392,10
51.2476,10
51.2559,5
51.2643,9
51.2727,13
51.281,5
51.2894,17
51.2977,15
51.3061,11
51.3144,11
51.3228,8
51.3311,13
51.3395,9
51.3479,20
51.3562,21
51.3646,11
51.3729,14
51.3813,10
51.3896,14
51.398,16
51.4063,8
51.4147,11
51.4231,7
51.4314,15
51.4398,10
51.4481,10
51.4565,5
51.4648,15
51.4732,7
51.4815,8
51.4899,9
51.4983,7
51.5066,11
51.515,9
51.5233,18
51.5317,16
51.54,15
51.5484,15
51.5567,15
51.5651,10
51.5735,14
51.5818,11
51.5902,10
51.5985,9
51.6069,10
51.6152,14
51.6236,7
51.6319,8
51.6403,5
51.6487,7
51.657,11
51.6654,10
51.6737,10
51.6821,10
51.6904,14
51.6988,10
51.7071,13
51.7155,17
51.7239,14
51.7322,13
51.7406,5
51.7489,8
51.7573,10
51.7656,14
51.774,18
51.7824,7
51.7907,5
51.7991,10
51.8074,11
51.8158,8
51.8241,14
51.8325,10
51.8408,15
51.8492,8
51.8576,10
51.8659,10
51.8743,15
51.8826,13
51.891,17
51.8993,4
51.9077,5
51.916,13
51.9244,10
51.9328,13
51.9411,13
51.9495,9
51.9578,13
51.9662,10
51.9745,4
51.9829,10
51.9912,10
51.9996,18
52.008,9
52.0163,11
52.0247,8
52.033,4
52.0414,9
52.0497,11
52.0581,9
52.0664,10
52.0748,8
52.0832,17
52.0915,13
52.0999,14
52.1082,8
52.1166,8
52.1249,10
52.1333,13
52.1416,9
52.15,14
52.1584,5
52.1667,9
52.1751,11
52.1834,11
52.1918,10
52.2001,5
52.2085,7
52.2168,10
52.2252,10
52.2336,11
52.2419,9
52.2503,10
52.2586,16
52.267,13
52.2753,14
52.2837,17
52.292,17
52.3004,14
52.3088,11
52.3171,11
52.3255,11
52.3338,9
52.3422,13
52.3505,8
52.3589,10
52.3672,14
52.3756,13
52.384,16
52.3923,13
52.4007,7
52.409,9
52.4174,5
52.4257,8
52.4341,11
52.4424,8
52.4508,13
52.4592,11
52.4675,16
52.4759,7
52.4842,15
52.4926,10
52.5009,14
52.5093,9
52.5176,8
52.526,13
52.5344,13
52.5427,15
52.5511,17
52.5594,7
52.5678,15
52.5761,7
52.5845,10
52.5928,11
52.6012,9
52.6096,15
52.6179,20
52.6263,14
52.6346,17
52.643,11
52.6513,10
52.6597,7
52.668,16
52.6764,14
52.6848,14
52.6931,15
52.7015,15
52.7098,14
52.7182,17
52.7265,8
52.7349,11
52.7432,27
52.7516,18
52.76,24
52.7683,18
52.7767,14
52.785,21
52.7934,15
52.8017,10
52.8101,28
52.8184,22
52.8268,20
52.8352,28
52.8435,30
52.8519,42
52.8602,48
52.8686,37
52.8769,53
52.8853,61
52.8936,41
52.902,48
52.9104,53
52.9187,77
52.9271,78
52.9354,82
52.9438,61
52.9521,75
52.9605,97
52.9689,87
52.9772,105
52.9856,124
52.9939,114
53.0023,125
53.0106,132
53.019,127
53.0273,131
53.0357,112
53.0441,98
53.0524,91
53.0608,104
53.0691,94
53.0775,71
53.0858,81
53.0942,67
53.1025,56
53.1109,63
53.1193,84
53.1276,59
53.136,59
53.1443,61
53.1527,60
53.161,85
53.1694,52
53.1777,53
53.1861,49
53.1945,49
53.2028,46
53.2112,33
53.2195,30
53.2279,30
53.2362,28
53.2446,13
53.2529,28
53.2613,23
53.2697,17
53.278,11
53.2864,14
53.2947,16
53.3031,23
53.3114,13
53.3198,17
53.3281,14
53.3365,15
53.3449,7
53.3532,16
53.3616,11
53.3699,5
53.3783,11
53.3866,15
53.395,9
53.4033,11
53.4117,20
53.4201,8
53.4284,9
53.4368,13
53.4451,7
53.4535,15
53.4618,15
53.4702,9
53.4785,9
53.4869,10
53.4953,4
53.5036,10
53.512,14
53.5203,9
53.5287,7
53.537,11
53.5454,9
53.5537,9
53.5621,14
53.5705,8
53.5788,16
53.5872,15
53.5955,15
53.6039,5
53.6122,16
53.6206,5
53.6289,15
53.6373,11
53.6457,10
53.654,11
53.6624,9
53.6707,13
53.6791,13
53.6874,8
53.6958,7
53.7041,11
53.7125,11
53.7209,9
53.7292,13
53.7376,10
53.7459,14
53.7543,15
53.7626,13
53.771,8
53.7793,13
53.7877,10
53.7961,11
53.8044,14
53.8128,10
53.8211,7
53.8295,8
53.8378,10
53.8462,15
53.8545,9
53.8629,10
53.8713,16
53.8796,7
53.888,13
53.8963,9
53.9047,14
53.913,5
53.9214,8
53.9297,11
53.9381,16
53.9465,9
53.9548,10
53.9632,11
53.9715,11
53.9799,11
53.9882,9
53.9966,9
54.0049,18
54.0133,11
54.0217,10
54.03,13
54.0384,16
54.0467,9
54.0551,14
54.0634,11
54.0718,4
54.0801,13
54.0885,13
54.0969,8
54.1052,17
54.1136,8
54.1219,9
54.1303,13
54.1386,9
54.147,13
54.1554,10
54.1637,14
54.1721,4
54.1804,21
54.1888,11
54.1971,16
54.2055,11
54.2138,9
54.2222,10
54.2306,7
54.2389,13
54.2473,8
54.2556,11
54.264,8
54.2723,8
54.2807,7
54.289,18
54.2974,11
54.3058,10
54.3141,8
54.3225,13
54.3308,15
54.3392,7
54.3475,13
54.3559,10
54.3642,16
54.3726,9
54.381,11
54.3893,13
54.3977,7
54.406,5
54.4144,18
54.4227,7
54.4311,22
54.4394,7
54.4478,5
54.4562,11
54.4645,15
54.4729,23
54.4812,11
54.4896,8
54.4979,9
54.5063,9
54.5146,17
54.523,10
54.5314,5
54.5397,9
54.5481,15
54.5564,9
54.5648,10
54.5731,17
54.5815,14
54.5898,20
54.5982,15
54.6066,13
54.6149,10
54.6233,13
54.6316,10
54.64,14
54.6483,11
54.6567,9
54.665,13
54.6734,9
54.6818,14
54.6901,13
54.6985,13
54.7068,9
54.7152,8
54.7235,10
54.7319,11
54.7402,15
54.7486,9
54.757,9
54.7653,7
54.7737,15
54.782,13
54.7904,16
54.7987,10
54.8071,14
54.8154,7
54.8238,4
54.8322,3
54.8405,10
54.8489,18
54.8572,14
54.8656,13
54.8739,7
54.8823,5
54.8906,8
54.899,8
54.9074,13
54.9157,10
54.9241,15
54.9324,10
54.9408,9
54.9491,14
54.9575,7
54.9658,10
54.9742,8
54.9826,8
54.9909,9
54.9993,10
55.0076,10
55.016,9
55.0243,4
55.0327,9
55.041,8
55.0494,9
55.0578,16
55.0661,7
55.0745,11
55.0828,15
55.0912,14
55.0995,11
55.1079,14
55.1162,11
55.1246,11
55.133,9
55.1413,14
55.1497,14
55.158,5
55.1664,14
55.1747,8
55.1831,9
55.1914,8
55.1998,5
55.2082,5
55.2165,13
55.2249,8
55.2332,16
55.2416,11
55.2499,5
55.2583,17
55.2666,13
55.275,9
55.2834,14
55.2917,4
55.3001,5
55.3084,14
55.3168,14
55.3251,8
55.3335,11
55.3419,16
55.3502,15
55.3586,9
55.3669,10
55.3753,7
55.3836,11
55.392,10
55.4003,5
55.4087,10
55.4171,16
55.4254,10
55.4338,16
55.4421,5
55.4505,14
55.4588,11
55.4672,16
55.4755,9
55.4839,8
55.4923,10
55.5006,15
55.509,9
55.5173,10
55.5257,13
55.534,13
55.5424,13
55.5507,2
55.5591,15
55.5675,5
55.5758,7
55.5842,11
55.5925,10
55.6009,5
55.6092,15
55.6176,9
55.6259,9
55.6343,8
55.6427,14
55.651,13
55.6594,5
55.6677,7
55.6761,10
55.6844,11
55.6928,13
55.7011,9
55.7095,9
55.7179,5
55.7262,16
55.7346,14
55.7429,8
55.7513,10
55.7596,9
55.768,20
55.7763,5
55.7847,14
55.7931,9
55.8014,8
55.8098,16
55.8181,11
55.8265,8
55.8348,17
55.8432,10
55.8515,9
55.8599,9
55.8683,7
55.8766,3
55.885,11
55.8933,7
55.9017,11
55.91,7
55.9184,15
55.9267,9
55.9351,9
55.9435,15
55.9518,8
55.9602,21
55.9685,8
55.9769,11
55.9852,5
55.9936,7
56.0019,3
56.0103,13
56.0187,5
56.027,8
56.0354,9
56.0437,4
56.0521,10
56.0604,7
56.0688,5
56.0771,4
56.0855,4
56.0939,17
56.1022,8
56.1106,15
56.1189,9
56.1273,10
56.1356,14
56.144,8
56.1523,11
56.1607,7
56.1691,10
56.1774,10
56.1858,16
56.1941,11
56.2025,15
56.2108,11
56.2192,7
56.2275,14
56.2359,5
56.2443,15
56.2526,10
56.261,9
56.2693,11
56.2777,15
56.286,15
56.2944,16
56.3027,10
56.3111,15
56.3195,9
56.3278,8
56.3362,10
56.3445,7
56.3529,15
56.3612,8
56.3696,14
56.3779,9
56.3863,8
56.3947,7
56.403,13
56.4114,11
56.4197,13
56.4281,15
56.4364,11
56.4448,8
56.4531,14
56.4615,9
56.4699,11
56.4782,5
56.4866,15
56.4949,16
56.5033,14
56.5116,13
56.52,11
56.5284,7
56.5367,3
56.5451,9
56.5534,10
56.5618,8
56.5701,14
56.5785,16
56.5868,8
56.5952,7
56.6036,7
56.6119,7
56.6203,14
56.6286,14
56.637,16
56.6453,5
56.6537,11
56.662,13
56.6704,9
56.6788,8
56.6871,8
56.6955,5
56.7038,7
56.7122,11
56.7205,8
56.7289,10
56.7372,13
56.7456,8
56.754,11
56.7623,9
56.7707,14
56.779,4
56.7874,8
56.7957,7
56.8041,8
56.8124,10
56.8208,13
56.8292,17
56.8375,9
56.8459,15
56.8542,8
56.8626,18
56.8709,4
56.8793,9
56.8876,9
56.896,7
56.9044,9
56.9127,9
56.9211,13
56.9294,7
56.9378,14
56.9461,11
56.9545,9
56.9628,8
56.9712,10
56.9796,14
56.9879,8
56.9963,9
57.0046,11
57.013,11
57.0213,10
57.0297,11
57.038,8
57.0464,11
57.0548,7
57.0631,8
57.0715,8
57.0798,5
57.0882,5
57.0965,4
57.1049,14
57.1132,10
57.1216,15
57.13,13
57.1383,13
57.1467,8
57.155,16
57.1634,10
57.1717,8
57.1801,13
57.1884,7
57.1968,5
57.2052,16
57.2135,18
57.2219,10
57.2302,8
57.2386,15
57.2469,5
57.2553,11
57.2636,4
57.272,18
57.2804,11
57.2887,8
57.2971,13
57.3054,10
57.3138,14
57.3221,13
57.3305,9
57.3388,8
57.3472,7
57.3556,10
57.3639,11
57.3723,8
57.3806,8
57.389,8
57.3973,9
57.4057,9
57.414,13
57.4224,14
57.4308,8
57.4391,7
57.4475,9
57.4558,7
57.4642,8
57.4725,14
57.4809,8
57.4892,15
57.4976,5
57.506,8
57.5143,11
57.5227,9
57.531,16
57.5394,13
57.5477,4
57.5561,17
57.5644,5
57.5728,10
57.5812,13
57.5895,8
57.5979,9
57.6062,13
57.6146,13
57.6229,13
57.6313,5
57.6397,13
57.648,8
57.6564,8
57.6647,10
57.6731,7
57.6814,7
57.6898,5
57.6981,5
57.7065,15
57.7149,9
57.7232,8
57.7316,13
57.7399,11
57.7483,14
57.7566,14
57.765,14
57.7733,20
57.7817,11
57.7901,13
57.7984,4
57.8068,9
57.8151,4
57.8235,7
57.8318,9
57.8402,11
57.8485,9
57.8569,9
57.8653,10
57.8736,10
57.882,16
57.8903,10
57.8987,8
57.907,10
57.9154,10
57.9237,10
57.9321,15
57.9405,14
57.9488,8
57.9572,17
57.9655,8
57.9739,15
57.9822,5
57.9906,8
57.9989,7
58.0073,7
58.0157,8
58.024,5
58.0324,11
58.0407,13
58.0491,9
58.0574,8
58.0658,9
58.0741,8
58.0825,14
58.0909,16
58.0992,5
58.1076,7
58.1159,7
58.1243,16
58.1326,8
58.141,10
58.1493,4
58.1577,8
58.1661,8
58.1744,7
58.1828,5
58.1911,13
58.1995,10
58.2078,10
58.2162,11
58.2245,15
58.2329,13
58.2413,11
58.2496,9
58.258,14
58.2663,5
58.2747,10
58.283,9
58.2914,8
58.2997,8
58.3081,7
58.3165,9
58.3248,9
58.3332,20
58.3415,9
58.3499,11
58.3582,10
58.3666,8
58.3749,9
58.3833,10
58.3917,10
58.4,5
58.4084,11
58.4167,5
58.4251,11
58.4334,2
58.4418,11
58.4501,10
58.4585,14
58.4669,9
58.4752,7
58.4836,7
58.4919,11
58.5003,8
58.5086,11
58.517,9
58.5253,9
58.5337,8
58.5421,13
58.5504,7
58.5588,10
58.5671,14
58.5755,10
58.5838,5
58.5922,10
58.6005,7
58.6089,4
58.6173,5
58.6256,7
58.634,11
58.6423,13
58.6507,10
58.659,8
58.6674,7
58.6757,8
58.6841,10
58.6925,7
58.7008,5
58.7092,7
58.7175,10
58.7259,9
58.7342,9
58.7426,3
58.7509,8
58.7593,8
58.7677,13
58.776,9
58.7844,16
58.7927,8
58.8011,11
58.8094,3
58.8178,7
58.8262,14
58.8345,17
58.8429,9
58.8512,3
58.8596,8
58.8679,9
58.8763,3
58.8846,11
58.893,10
58.9014,13
58.9097,9
58.9181,13
58.9264,10
58.9348,5
58.9431,14
58.9515,5
58.9598,11
58.9682,9
58.9766,18
58.9849,5
58.9933,13
59.0016,8
59.01,4
59.0183,7
59.0267,9
59.035,9
59.0434,8
59.0518,14
59.0601,8
59.0685,4
59.0768,9
59.0852,8
59.0935,11
59.1019,11
59.1102,10
59.1186,17
59.127,14
59.1353,9
59.1437,8
59.152,10
59.1604,11
59.1687,11
59.1771,7
59.1854,7
59.1938,17
59.2022,5
59.2105,13
59.2189,14
59.2272,10
59.2356,7
59.2439,16
59.2523,7
59.2606,7
59.269,13
59.2774,5
59.2857,13
59.2941,3
59.3024,8
59.3108,17
59.3191,10
59.3275,8
59.3358,9
59.3442,9
59.3526,9
59.3609,9
59.3693,15
59.3776,15
59.386,10
59.3943,9
59.4027,5
59.411,10
59.4194,8
59.4278,13
59.4361,13
59.4445,4
59.4528,7
59.4612,11
59.4695,8
59.4779,7
59.4862,9
59.4946,13
59.503,10
59.5113,11
59.5197,11
59.528,9
59.5364,5
59.5447,10
59.5531,9
59.5614,13
59.5698,8
59.5782,4
59.5865,8
59.5949,8
59.6032,13
59.6116,11
59.6199,8
59.6283,10
59.6366,13
59.645,7
59.6534,8
59.6617,8
59.6701,9
59.6784,11
59.6868,8
59.6951,7
59.7035,8
59.7118,9
59.7202,3
59.7286,9
59.7369,10
59.7453,9
59.7536,9
59.762,14
59.7703,7
59.7787,10
59.787,11
59.7954,16
59.8038,9
59.8121,13
59.8205,18
59.8288,10
59.8372,8
59.8455,8
59.8539,10
59.8622,13
59.8706,10
59.879,7
59.8873,15
59.8957,8
59.904,11
59.9124,15
59.9207,14
59.9291,16
59.9374,14
59.9458,18
59.9542,5
59.9625,10
59.9709,5
59.9792,5
59.9876,7
59.9959,11
60.0043,13
60.0127,15
60.021,14
60.0294,9
60.0377,5
60.0461,11
60.0544,14
60.0628,8
60.0711,10
60.0795,15
60.0879,10
60.0962,10
60.1046,15
60.1129,8
60.1213,8
60.1296,5
60.138,10
60.1463,15
60.1547,10
60.1631,11
60.1714,14
60.1798,10
60.1881,10
60.1965,10
60.2048,8
60.2132,9
60.2215,13
60.2299,8
60.2383,2
60.2466,15
60.255,5
60.2633,11
60.2717,8
60.28,14
60.2884,11
60.2967,11
60.3051,10
60.3135,14
60.3218,9
60.3302,10
60.3385,11
60.3469,16
60.3552,16
60.3636,10
60.3719,8
60.3803,7
60.3887,9
60.397,8
60.4054,8
60.4137,9
60.4221,8
60.4304,10
60.4388,10
60.4471,5
60.4555,16
60.4639,8
60.4722,5
60.4806,5
60.4889,8
60.4973,11
60.5056,10
60.514,8
60.5223,8
60.5307,13
60.5391,8
60.5474,11
60.5558,7
60.5641,16
60.5725,9
60.5808,8
60.5892,9
60.5975,8
60.6059,8
60.6143,9
60.6226,16
60.631,7
60.6393,9
60.6477,5
60.656,13
60.6644,9
60.6727,10
60.6811,9
60.6895,16
60.6978,7
60.7062,15
60.7145,14
60.7229,13
60.7312,10
60.7396,8
60.7479,14
60.7563,14
60.7647,15
60.773,11
60.7814,8
60.7897,7
60.7981,16
60.8064,5
60.8148,13
60.8231,8
60.8315,14
60.8399,15
60.8482,13
60.8566,3
60.8649,10
60.8733,4
60.8816,7
60.89,11
60.8983,11
60.9067,9
60.9151,15
60.9234,5
60.9318,11
60.9401,7
60.9485,10
60.9568,5
60.9652,7
60.9735,7
60.9819,7
60.9903,9
60.9986,8
61.007,10
61.0153,11
61.0237,7
61.032,11
61.0404,9
61.0487,11
61.0571,8
61.0655,13
61.0738,8
61.0822,9
61.0905,18
61.0989,17
61.1072,7
61.1156,15
61.1239,15
61.1323,15
61.1407,7
61.149,11
61.1574,11
61.1657,10
61.1741,15
61.1824,10
61.1908,13
61.1992,8
61.2075,11
61.2159,8
61.2242,15
61.2326,8
61.2409,8
61.2493,10
61.2576,7
61.266,9
61.2744,9
61.2827,3
61.2911,10
61.2994,8
61.3078,3
61.3161,16
61.3245,5
61.3328,5
61.3412,13
61.3496,15
61.3579,11
61.3663,10
61.3746,9
61.383,14
61.3913,16
61.3997,15
61.408,11
61.4164,8
61.4248,8
61.4331,10
61.4415,10
61.4498,14
61.4582,5
61.4665,9
61.4749,7
61.4832,17
61.4916,8
61.5,9
61.5083,8
61.5167,13
61.525,7
61.5334,7
61.5417,8
61.5501,8
61.5584,11
61.5668,11
61.5752,9
61.5835,10
61.5919,7
61.6002,15
61.6086,11
61.6169,5
61.6253,9
61.6336,7
61.642,13
61.6504,10
61.6587,11
61.6671,5
61.6754,9
61.6838,10
61.6921,8
61.7005,10
61.7088,13
61.7172,8
61.7256,13
61.7339,13
61.7423,8
61.7506,11
61.759,7
61.7673,11
61.7757,14
61.784,11
61.7924,7
61.8008,16
61.8091,7
61.8175,17
61.8258,9
61.8342,14
61.8425,11
61.8509,16
61.8592,13
61.8676,5
61.876,9
61.8843,9
61.8927,10
61.901,8
61.9094,14
61.9177,7
61.9261,7
61.9344,14
61.9428,11
61.9512,14
61.9595,15
61.9679,11
61.9762,11
61.9846,10
61.9929,11
62.0013,17
62.0096,15
62.018,9
62.0264,10
62.0347,8
62.0431,10
62.0514,16
62.0598,9
62.0681,9
62.0765,13
62.0848,11
62.0932,9
62.1016,8
62.1099,9
62.1183,14
62.1266,7
62.135,15
62.1433,11
62.1517,9
62.16,8
62.1684,9
62.1768,8
62.1851,9
62.1935,5
62.2018,10
62.2102,13
62.2185,11
62.2269,17
62.2352,5
62.2436,4
62.252,7
62.2603,5
62.2687,13
62.277,5
62.2854,7
62.2937,11
62.3021,13
62.3104,13
62.3188,5
62.3272,13
62.3355,9
62.3439,10
62.3522,18
62.3606,16
62.3689,11
62.3773,13
62.3857,18
62.394,7
62.4024,10
62.4107,9
62.4191,14
62.4274,14
62.4358,7
62.4441,15
62.4525,14
62.4609,11
62.4692,10
62.4776,11
62.4859,15
62.4943,15
62.5026,15
62.511,7
62.5193,7
62.5277,8
62.5361,4
62.5444,9
62.5528,11
62.5611,16
62.5695,4
62.5778,3
62.5862,10
62.5945,15
62.6029,8
62.6113,11
62.6196,13
62.628,7
62.6363,14
62.6447,7
62.653,7
62.6614,8
62.6697,8
62.6781,13
62.6865,5
62.6948,10
62.7032,11
62.7115,8
62.7199,7
62.7282,9
62.7366,5
62.7449,15
62.7533,10
62.7617,13
62.77,7
62.7784,8
62.7867,5
62.7951,8
62.8034,7
62.8118,11
62.8201,10
62.8285,21
62.8369,15
62.8452,21
62.8536,13
62.8619,8
62.8703,11
62.8786,10
62.887,14
62.8953,8
62.9037,15
62.9121,14
62.9204,8
62.9288,10
62.9371,10
62.9455,7
62.9538,10
62.9622,14
62.9705,5
62.9789,13
62.9873,11
62.9956,13
63.004,13
63.0123,11
63.0207,9
63.029,20
63.0374,18
63.0457,11
63.0541,11
63.0625,14
63.0708,15
63.0792,16
63.0875,16
63.0959,15
63.1042,18
63.1126,20
63.1209,9
63.1293,22
63.1377,18
63.146,21
63.1544,28
63.1627,24
63.1711,18
63.1794,21
63.1878,15
63.1961,15
63.2045,23
63.2129,17
63.2212,23
63.2296,26
63.2379,30
63.2463,26
63.2546,18
63.263,15
63.2713,24
63.2797,14
63.2881,17
63.2964,20
63.3048,20
63.3131,14
63.3215,13
63.3298,10
63.3382,16
63.3465,10
63.3549,15
63.3633,24
63.3716,17
63.38,14
63.3883,17
63.3967,17
63.405,15
63.4134,22
63.4217,11
63.4301,16
63.4385,14
63.4468,10
63.4552,5
63.4635,9
63.4719,8
63.4802,13
63.4886,13
63.4969,17
63.5053,7
63.5137,11
63.522,11
63.5304,5
63.5387,11
63.5471,9
63.5554,13
63.5638,10
63.5722,11
63.5805,9
63.5889,11
63.5972,9
63.6056,14
63.6139,7
63.6223,14
63.6306,8
63.639,13
63.6474,7
63.6557,10
63.6641,5
63.6724,15
63.6808,11
63.6891,7
63.6975,11
63.7058,13
63.7142,10
63.7226,7
63.7309,18
63.7393,9
63.7476,11
63.756,4
63.7643,7
63.7727,8
63.781,10
63.7894,11
63.7978,13
63.8061,15
63.8145,1
63.8228,9
63.8312,17
63.8395,16
63.8479,7
63.8562,10
63.8646,5
63.873,13
63.8813,8
63.8897,8
63.898,8
63.9064,11
63.9147,5
63.9231,11
63.9314,13
63.9398,10
63.9482,7
63.9565,11
63.9649,9
63.9732,4
63.9816,10
63.9899,10
63.9983,9
64.0066,13
64.015,15
64.0234,14
64.0317,14
64.0401,8
64.0484,16
64.0568,3
64.0651,10
64.0735,10
64.0818,9
64.0902,9
64.0986,10
64.1069,5
64.1153,9
64.1236,14
64.132,14
64.1403,7
64.1487,5
64.157,9
64.1654,13
64.1738,9
64.1821,13
64.1905,8
64.1988,10
64.2072,14
64.2155,5
64.2239,10
64.2322,10
64.2406,15
64.249,9
64.2573,11
64.2657,10
64.274,14
64.2824,11
64.2907,13
64.2991,11
64.3074,11
64.3158,13
64.3242,7
64.3325,1
64.3409,7
64.3492,13
64.3576,13
64.3659,8
64.3743,13
64.3826,11
64.391,10
64.3994,11
64.4077,7
64.4161,10
64.4244,13
64.4328,11
64.4411,7
64.4495,10
64.4578,9
64.4662,8
64.4746,5
64.4829,10
64.4913,10
64.4996,8
64.508,13
64.5163,8
64.5247,8
64.533,8
64.5414,11
64.5498,14
64.5581,7
64.5665,4
64.5748,8
64.5832,10
64.5915,14
64.5999,8
64.6082,11
64.6166,5
64.625,9
64.6333,10
64.6417,9
64.65,10
64.6584,14
64.6667,9
64.6751,15
64.6834,9
64.6918,10
64.7002,11
64.7085,3
64.7169,13
64.7252,11
64.7336,7
64.7419,13
64.7503,9
64.7587,7
64.767,8
64.7754,18
64.7837,9
64.7921,10
64.8004,9
64.8088,10
64.8171,4
64.8255,7
64.8339,7
64.8422,11
64.8506,8
64.8589,10
64.8673,9
64.8756,13
64.884,13
64.8923,11
64.9007,15
64.9091,11
64.9174,16
64.9258,17
64.9341,8
64.9425,9
64.9508,10
64.9592,13
64.9675,10
64.9759,15
64.9843,5
64.9926,10
65.001,5
65.0093,17
65.0177,11
65.026,9
65.0344,5
65.0427,17
65.0511,9
65.0595,14
65.0678,11
65.0762,14
65.0845,15
65.0929,11
65.1012,11
65.1096,9
65.1179,13
65.1263,15
65.1347,13
65.143,9
65.1514,8
65.1597,11
65.1681,14
65.1764,8
65.1848,14
65.1931,15
65.2015,9
65.2099,10
65.2182,11
65.2266,10
65.2349,11
65.2433,10
65.2516,4
65.26,8
65.2683,10
65.2767,9
65.2851,14
65.2934,11
65.3018,8
65.3101,14
65.3185,13
65.3268,5
65.3352,15
65.3435,10
65.3519,4
65.3603,10
65.3686,7
65.377,10
65.3853,11
65.3937,10
65.402,10
65.4104,5
65.4187,16
65.4271,7
65.4355,10
65.4438,7
65.4522,17
65.4605,10
65.4689,8
65.4772,14
65.4856,15
65.4939,8
65.5023,10
65.5107,15
65.519,13
65.5274,7
65.5357,9
65.5441,8
65.5524,13
65.5608,14
65.5691,11
65.5775,13
65.5859,8
65.5942,14
65.6026,7
65.6109,7
65.6193,9
65.6276,14
65.636,13
65.6443,7
65.6527,8
65.6611,2
65.6694,10
65.6778,3
65.6861,10
65.6945,8
65.7028,7
65.7112,3
65.7195,13
65.7279,10
65.7363,10
65.7446,9
65.753,10
65.7613,9
65.7697,9
65.778,10
65.7864,21
65.7947,8
65.8031,14
65.8115,7
65.8198,4
65.8282,14
65.8365,13
65.8449,10
65.8532,14
65.8616,17
65.87,2
65.8783,11
65.8867,20
65.895,9
65.9034,10
65.9117,11
65.9201,7
65.9284,10
65.9368,10
65.9452,9
65.9535,14
65.9619,9
65.9702,8
65.9786,10
65.9869,9
65.9953,13
66.0036,9
66.012,8
66.0204,18
66.0287,18
66.0371,8
66.0454,11
66.0538,10
66.0621,14
66.0705,9
66.0788,10
66.0872,11
66.0956,10
66.1039,7
66.1123,13
66.1206,8
66.129,13
66.1373,9
66.1457,11
66.154,14
66.1624,9
66.1708,10
66.1791,10
66.1875,10
66.1958,13
66.2042,7
66.2125,11
66.2209,8
66.2292,11
66.2376,11
66.246,7
66.2543,17
66.2627,10
66.271,10
66.2794,10
66.2877,7
66.2961,16
66.3044,14
66.3128,11
66.3212,3
66.3295,14
66.3379,14
66.3462,9
66.3546,8
66.3629,22
66.3713,11
66.3796,8
66.388,7
66.3964,2
66.4047,15
66.4131,5
66.4214,5
66.4298,11
66.4381,10
66.4465,14
66.4548,9
66.4632,14
66.4716,15
66.4799,11
66.4883,14
66.4966,11
66.505,9
66.5133,11
66.5217,8
66.53,5
66.5384,9
66.5468,16
66.5551,10
66.5635,7
66.5718,3
66.5802,11
66.5885,4
66.5969,9
66.6052,11
66.6136,20
66.622,13
66.6303,8
66.6387,11
66.647,13
66.6554,4
66.6637,14
66.6721,18
66.6804,10
66.6888,11
66.6972,11
66.7055,14
66.7139,8
66.7222,5
66.7306,13
66.7389,5
66.7473,11
66.7556,13
66.764,15
66.7724,15
66.7807,9
66.7891,10
66.7974,8
66.8058,10
66.8141,11
66.8225,9
66.8308,11
66.8392,13
66.8476,10
66.8559,10
66.8643,10
66.8726,7
66.881,8
66.8893,10
66.8977,13
66.906,11
66.9144,11
66.9228,11
66.9311,10
66.9395,4
66.9478,11
66.9562,7
66.9645,8
66.9729,7
66.9812,8
66.9896,10
66.998,9
67.0063,7
67.0147,14
67.023,7
67.0314,9
67.0397,11
67.0481,11
67.0565,9
67.0648,8
67.0732,9
67.0815,11
67.0899,15
67.0982,4
67.1066,10
67.1149,18
67.1233,14
67.1317,8
67.14,14
67.1484,13
67.1567,21
67.1651,9
67.1734,13
67.1818,16
67.1901,8
67.1985,15
67.2069,5
67.2152,9
67.2236,13
67.2319,5
67.2403,13
67.2486,8
67.257,14
67.2653,10
67.2737,4
67.2821,7
67.2904,10
67.2988,7
67.3071,7
67.3155,4
67.3238,13
67.3322,15
67.3405,15
67.3489,14
67.3573,9
67.3656,10
67.374,3
67.3823,8
67.3907,10
67.399,13
67.4074,9
67.4157,14
67.4241,9
67.4325,8
67.4408,11
67.4492,15
67.4575,13
67.4659,15
67.4742,10
67.4826,9
67.4909,11
67.4993,14
67.5077,17
67.516,7
67.5244,14
67.5327,3
67.5411,8
67.5494,15
67.5578,15
67.5661,13
67.5745,11
67.5829,10
67.5912,11
67.5996,9
67.6079,10
67.6163,8
67.6246,15
67.633,14
67.6413,11
67.6497,10
67.6581,9
67.6664,14
67.6748,11
67.6831,9
67.6915,7
67.6998,8
67.7082,10
67.7165,13
67.7249,17
67.7333,5
67.7416,15
67.75,13
67.7583,15
67.7667,10
67.775,10
67.7834,13
67.7917,7
67.8001,15
67.8085,9
67.8168,15
67.8252,15
67.8335,9
67.8419,13
67.8502,7
67.8586,9
67.8669,9
67.8753,13
67.8837,9
67.892,13
67.9004,13
67.9087,9
67.9171,9
67.9254,10
67.9338,13
67.9421,17
67.9505,11
67.9589,2
67.9672,9
67.9756,16
67.9839,4
67.9923,7
68.0006,5
68.009,14
68.0173,7
68.0257,14
68.0341,9
68.0424,13
68.0508,4
68.0591,11
68.0675,11
68.0758,11
68.0842,17
68.0925,14
68.1009,15
68.1093,20
68.1176,13
68.126,10
68.1343,10
68.1427,8
68.151,8
68.1594,11
68.1677,9
68.1761,11
68.1845,15
68.1928,8
68.2012,15
68.2095,14
68.2179,16
68.2262,21
68.2346,4
68.243,11
68.2513,14
68.2597,9
68.268,11
68.2764,13
68.2847,10
68.2931,10
68.3014,5
68.3098,5
68.3182,13
68.3265,4
68.3349,13
68.3432,10
68.3516,13
68.3599,7
68.3683,11
68.3766,10
68.385,11
68.3934,10
68.4017,10
68.4101,13
68.4184,13
68.4268,20
68.4351,14
68.4435,10
68.4518,14
68.4602,7
68.4686,14
68.4769,3
68.4853,17
68.4936,9
68.502,15
68.5103,15
68.5187,7
68.527,14
68.5354,10
68.5438,16
68.5521,9
68.5605,7
68.5688,16
68.5772,10
68.5855,13
68.5939,16
68.6022,5
68.6106,17
68.619,11
68.6273,8
68.6357,13
68.644,7
68.6524,20
68.6607,4
68.6691,14
68.6774,9
68.6858,5
68.6942,11
68.7025,11
68.7109,5
68.7192,11
68.7276,7
68.7359,18
68.7443,13
68.7526,9
68.761,20
68.7694,17
68.7777,7
68.7861,8
68.7944,8
68.8028,9
68.8111,10
68.8195,15
68.8278,7
68.8362,8
68.8446,9
68.8529,7
68.8613,9
68.8696,10
68.878,9
68.8863,10
68.8947,15
68.903,14
68.9114,14
68.9198,10
68.9281,10
68.9365,16
68.9448,10
68.9532,15
68.9615,14
68.9699,20
68.9782,18
68.9866,5
68.995,11
69.0033,14
69.0117,10
69.02,13
69.0284,15
69.0367,9
69.0451,4
69.0534,14
69.0618,16
69.0702,7
69.0785,15
69.0869,16
69.0952,20
69.1036,13
69.1119,8
69.1203,13
69.1286,13
69.137,13
69.1454,11
69.1537,8
69.1621,15
69.1704,13
69.1788,16
69.1871,11
69.1955,8
69.2038,10
69.2122,11
69.2206,11
69.2289,9
69.2373,7
69.2456,11
69.254,17
69.2623,10
69.2707,8
69.279,9
69.2874,9
69.2958,13
69.3041,8
69.3125,14
69.3208,11
69.3292,15
69.3375,14
69.3459,11
69.3542,13
69.3626,8
69.371,16
69.3793,10
69.3877,10
69.396,10
69.4044,4
69.4127,10
69.4211,13
69.4295,10
69.4378,10
69.4462,9
69.4545,8
69.4629,7
69.4712,10
69.4796,7
69.4879,13
69.4963,11
69.5047,11
69.513,7
69.5214,11
69.5297,16
69.5381,15
69.5464,13
69.5548,9
69.5631,16
69.5715,9
69.5799,14
69.5882,14
69.5966,7
69.6049,11
69.6133,7
69.6216,7
69.63,10
69.6383,11
69.6467,11
69.6551,9
69.6634,9
69.6718,11
69.6801,7
69.6885,11
69.6968,5
69.7052,5
69.7135,10
69.7219,11
69.7303,15
69.7386,13
69.747,5
69.7553,14
69.7637,13
69.772,11
69.7804,15
69.7887,15
69.7971,17
69.8055,10
69.8138,18
69.8222,8
69.8305,14
69.8389,15
69.8472,8
69.8556,14
69.8639,15
69.8723,14
69.8807,10
69.889,8
69.8974,8
69.9057,10
69.9141,5
69.9224,9
69.9308,13
69.9391,9
69.9475,10
69.9559,4
69.9642,20
69.9726,11
69.9809,11
69.9893,5
69.9976,16
70.006,17
70.0143,9
70.0227,16
70.0311,14
70.0394,9
70.0478,13
70.0561,11
70.0645,14
70.0728,9
70.0812,8
70.0895,14
70.0979,10
70.1063,9
70.1146,11
70.123,11
70.1313,5
70.1397,16
70.148,17
70.1564,14
70.1647,11
70.1731,10
70.1815,5
70.1898,9
70.1982,13
70.2065,14
70.2149,13
70.2232,8
70.2316,17
70.2399,15
70.2483,15
70.2567,16
70.265,8
70.2734,14
70.2817,11
70.2901,18
70.2984,10
70.3068,10
70.3151,10
70.3235,13
70.3319,16
70.3402,9
70.3486,9
70.3569,15
70.3653,14
70.3736,9
70.382,14
70.3903,13
70.3987,8
70.4071,20
70.4154,17
70.4238,11
70.4321,14
70.4405,13
70.4488,15
70.4572,9
70.4655,24
70.4739,22
70.4823,7
70.4906,23
70.499,18
70.5073,15
70.5157,36
70.524,27
70.5324,29
70.5407,30
70.5491,24
70.5575,35
70.5658,35
70.5742,41
70.5825,43
70.5909,52
70.5992,69
70.6076,59
70.616,63
70.6243,69
70.6327,72
70.641,87
70.6494,105
70.6577,86
70.6661,90
70.6744,94
70.6828,88
70.6912,90
70.6995,58
70.7079,61
70.7162,63
70.7246,71
70.7329,47
70.7413,31
70.7496,34
70.758,40
70.7664,36
70.7747,24
70.7831,23
70.7914,34
70.7998,31
70.8081,30
70.8165,35
70.8248,37
70.8332,62
70.8416,42
70.8499,50
70.8583,41
70.8666,50
70.875,43
70.8833,49
70.8917,43
70.9,48
70.9084,35
70.9168,34
70.9251,20
70.9335,29
70.9418,23
70.9502,17
70.9585,23
70.9669,20
70.9752,15
70.9836,9
70.992,18
71.0003,11
71.0087,15
71.017,21
71.0254,16
71.0337,11
71.0421,9
71.0504,18
71.0588,9
71.0672,9
71.0755,17
71.0839,9
71.0922,11
71.1006,10
71.1089,14
71.1173,17
71.1256,16
71.134,27
71.1424,18
71.1507,11
71.1591,11
71.1674,7
71.1758,11
71.1841,10
71.1925,13
71.2008,15
71.2092,14
71.2176,10
71.2259,10
71.2343,10
71.2426,10
71.251,20
71.2593,11
71.2677,11
71.276,18
71.2844,11
71.2928,15
71.3011,10
71.3095,15
71.3178,16
71.3262,17
71.3345,7
71.3429,15
71.3512,9
71.3596,17
71.368,17
71.3763,9
71.3847,20
71.393,15
71.4014,13
71.4097,10
71.4181,9
71.4264,10
71.4348,13
71.4432,17
71.4515,14
71.4599,17
71.4682,10
71.4766,16
71.4849,13
71.4933,5
71.5016,4
71.51,15
71.5184,13
71.5267,8
71.5351,8
71.5434,10
71.5518,9
71.5601,13
71.5685,20
71.5768,8
71.5852,9
71.5936,13
71.6019,10
71.6103,9
71.6186,8
71.627,8
71.6353,14
71.6437,9
71.652,11
71.6604,10
71.6688,11
71.6771,10
71.6855,15
71.6938,3
71.7022,8
71.7105,10
71.7189,14
71.7272,15
71.7356,10
71.744,16
71.7523,9
71.7607,14
71.769,7
71.7774,11
71.7857,14
71.7941,3
71.8025,7
71.8108,16
71.8192,21
71.8275,8
71.8359,15
71.8442,17
71.8526,8
71.8609,11
71.8693,8
71.8777,16
71.886,10
71.8944,8
71.9027,10
71.9111,8
71.9194,13
71.9278,13
71.9361,8
71.9445,15
71.9529,9
71.9612,9
71.9696,17
71.9779,10
71.9863,5
71.9946,18
72.003,15
72.0113,8
72.0197,7
72.0281,10
72.0364,9
72.0448,8
72.0531,15
72.0615,15
72.0698,13
72.0782,9
72.0865,11
72.0949,13
72.1033,10
72.1116,10
72.12,14
72.1283,16
72.1367,8
72.145,8
72.1534,13
72.1617,7
72.1701,26
72.1785,9
72.1868,9
72.1952,14
72.2035,8
72.2119,3
72.2202,15
72.2286,9
72.2369,11
72.2453,9
72.2537,10
72.262,16
72.2704,11
72.2787,17
72.2871,10
72.2954,5
72.3038,15
72.3121,13
72.3205,13
72.3289,8
72.3372,15
72.3456,10
72.3539,17
72.3623,16
72.3706,10
72.379,14
72.3873,13
72.3957,5
72.4041,9
72.4124,11
72.4208,18
72.4291,14
72.4375,9
72.4458,7
72.4542,9
72.4625,9
72.4709,14
72.4793,17
72.4876,11
72.496,11
72.5043,16
72.5127,10
72.521,13
72.5294,5
72.5377,10
72.5461,7
72.5545,7
72.5628,3
72.5712,7
72.5795,11
72.5879,16
72.5962,11
72.6046,11
72.6129,13
72.6213,13
72.6297,16
72.638,11
72.6464,3
72.6547,16
72.6631,14
72.6714,10
72.6798,15
72.6881,13
72.6965,11
72.7049,18
72.7132,16
72.7216,11
72.7299,13
72.7383,14
72.7466,3
72.755,15
72.7633,11
72.7717,13
72.7801,10
72.7884,13
72.7968,10
72.8051,17
72.8135,5
72.8218,15
72.8302,15
72.8385,9
72.8469,10
72.8553,9
72.8636,9
72.872,10
72.8803,11
72.8887,7
72.897,9
72.9054,13
72.9137,8
72.9221,11
72.9305,7
72.9388,10
72.9472,17
72.9555,10
72.9639,9
72.9722,5
72.9806,11
72.989,16
72.9973,16
73.0057,16
73.014,8
73.0224,5
73.0307,16
73.0391,10
73.0474,15
73.0558,16
73.0642,10
73.0725,9
73.0809,20
73.0892,11
73.0976,4
73.1059,4
73.1143,18
73.1226,11
73.131,15
73.1394,8
73.1477,8
73.1561,13
73.1644,14
73.1728,4
73.1811,16
73.1895,18
73.1978,10
73.2062,2
73.2146,8
73.2229,9
73.2313,9
73.2396,7
73.248,11
73.2563,10
73.2647,11
73.273,14
73.2814,9
73.2898,13
73.2981,7
73.3065,7
73.3148,22
73.3232,7
73.3315,15
73.3399,13
73.3482,13
73.3566,7
73.365,7
73.3733,10
73.3817,7
73.39,10
73.3984,13
73.4067,10
73.4151,13
73.4234,18
73.4318,14
73.4402,9
73.4485,5
73.4569,3
73.4652,15
73.4736,7
73.4819,8
73.4903,11
73.4986,20
73.507,13
73.5154,14
73.5237,10
73.5321,8
73.5404,10
73.5488,13
73.5571,3
73.5655,17
73.5738,8
73.5822,11
73.5906,13
73.5989,11
73.6073,10
73.6156,10
73.624,16
73.6323,14
73.6407,10
73.649,8
73.6574,9
73.6658,15
73.6741,14
73.6825,7
73.6908,8
73.6992,11
73.7075,16
73.7159,9
73.7242,9
73.7326,8
73.741,15
73.7493,11
73.7577,14
73.766,9
73.7744,21
73.7827,9
73.7911,10
73.7994,13
73.8078,10
73.8162,11
73.8245,13
73.8329,8
73.8412,8
73.8496,14
73.8579,17
73.8663,17
73.8746,13
73.883,11
73.8914,21
73.8997,10
73.9081,11
73.9164,4
73.9248,18
73.9331,4
73.9415,14
73.9498,11
73.9582,9
73.9666,13
73.9749,11
73.9833,10
73.9916,11
74,15
74.0083,4
74.0167,15
74.025,15
74.0334,9
74.0418,8
74.0501,14
74.0585,10
74.0668,16
74.0752,8
74.0835,9
74.0919,13
74.1002,11
74.1086,16
74.117,13
74.1253,14
74.1337,17
74.142,15
74.1504,14
74.1587,15
74.1671,10
74.1755,15
74.1838,14
74.1922,13
74.2005,11
74.2089,14
74.2172,7
74.2256,8
74.2339,17
74.2423,13
74.2507,11
74.259,17
74.2674,18
74.2757,17
74.2841,16
74.2924,16
74.3008,14
74.3091,18
74.3175,20
74.3259,16
74.3342,22
74.3426,10
74.3509,17
74.3593,11
74.3676,16
74.376,24
74.3843,22
74.3927,18
74.4011,15
74.4094,15
74.4178,20
74.4261,15
74.4345,15
74.4428,22
74.4512,14
74.4595,17
74.4679,16
74.4763,28
74.4846,20
74.493,14
74.5013,23
74.5097,14
74.518,22
74.5264,8
74.5347,15
74.5431,14
74.5515,21
74.5598,10
74.5682,29
74.5765,13
74.5849,11
74.5932,16
74.6016,16
74.6099,16
74.6183,16
74.6267,11
74.635,5
74.6434,18
74.6517,26
74.6601,21
74.6684,23
74.6768,18
74.6851,10
74.6935,20
74.7019,11
74.7102,13
74.7186,8
74.7269,8
74.7353,8
74.7436,9
74.752,4
74.7603,17
74.7687,7
74.7771,15
74.7854,7
74.7938,13
74.8021,11
74.8105,4
74.8188,11
74.8272,15
74.8355,11
74.8439,15
74.8523,13
74.8606,17
74.869,10
74.8773,22
74.8857,8
74.894,13
74.9024,11
74.9107,10
74.9191,7
74.9275,7
74.9358,11
74.9442,7
74.9525,11
74.9609,13
74.9692,14
74.9776,14
74.9859,13
74.9943,17
75.0027,17
75.011,11
75.0194,14
75.0277,14
75.0361,5
75.0444,18
75.0528,3
75.0611,10
75.0695,10
75.0779,11
75.0862,11
75.0946,22
75.1029,18
75.1113,13
75.1196,15
75.128,11
75.1363,13
75.1447,14
75.1531,18
75.1614,22
75.1698,7
75.1781,14
75.1865,14
75.1948,9
75.2032,14
75.2115,7
75.2199,13
75.2283,9
75.2366,9
75.245,9
75.2533,13
75.2617,13
75.27,10
75.2784,15
75.2868,9
75.2951,11
75.3035,7
75.3118,15
75.3202,16
75.3285,16
75.3369,9
75.3452,7
75.3536,14
75.362,16
75.3703,20
75.3787,15
75.387,11
75.3954,13
75.4037,13
75.4121,7
75.4204,14
75.4288,10
75.4372,20
75.4455,14
75.4539,21
75.4622,3
75.4706,13
75.4789,8
75.4873,11
75.4956,16
75.504,9
75.5124,9
75.5207,15
75.5291,15
75.5374,17
75.5458,9
75.5541,11
75.5625,15
75.5708,9
75.5792,7
75.5876,15
75.5959,15
75.6043,9
75.6126,9
75.621,10
75.6293,11
75.6377,10
75.646,18
75.6544,16
75.6628,20
75.6711,8
75.6795,9
75.6878,11
75.6962,9
75.7045,17
75.7129,22
75.7212,13
75.7296,9
75.738,13
75.7463,20
75.7547,14
75.763,22
75.7714,15
75.7797,16
75.7881,15
75.7964,22
75.8048,14
75.8132,10
75.8215,10
75.8299,11
75.8382,16
75.8466,21
75.8549,9
75.8633,11
75.8716,22
75.88,18
75.8884,20
75.8967,26
75.9051,10
75.9134,16
75.9218,22
75.9301,22
75.9385,26
75.9468,17
75.9552,16
75.9636,20
75.9719,13
75.9803,16
75.9886,21
75.997,14
76.0053,24
76.0137,29
76.022,21
76.0304,18
76.0388,24
76.0471,17
76.0555,21
76.0638,31
76.0722,28
76.0805,24
76.0889,27
76.0972,28
76.1056,35
76.114,37
76.1223,48
76.1307,24
76.139,39
76.1474,47
76.1557,53
76.1641,34
76.1724,58
76.1808,31
76.1892,49
76.1975,56
76.2059,49
76.2142,62
76.2226,61
76.2309,67
76.2393,54
76.2476,66
76.256,65
76.2644,78
76.2727,82
76.2811,103
76.2894,86
76.2978,97
76.3061,112
76.3145,136
76.3228,118
76.3312,131
76.3396,152
76.3479,144
76.3563,118
76.3646,157
76.373,171
76.3813,181
76.3897,159
76.398,174
76.4064,170
76.4148,190
76.4231,181
76.4315,212
76.4398,175
76.4482,157
76.4565,142
76.4649,132
76.4733,137
76.4816,129
76.49,101
76.4983,106
76.5067,90
76.515,94
76.5234,79
76.5317,87
76.5401,80
76.5485,71
76.5568,72
76.5652,101
76.5735,82
76.5819,93
76.5902,85
76.5986,87
76.6069,79
76.6153,74
76.6237,81
76.632,90
76.6404,74
76.6487,91
76.6571,80
76.6654,67
76.6738,72
76.6821,81
76.6905,58
76.6989,47
76.7072,45
76.7156,52
76.7239,48
76.7323,43
76.7406,37
76.749,24
76.7573,37
76.7657,29
76.7741,26
76.7824,31
76.7908,31
76.7991,20
76.8075,21
76.8158,13
76.8242,28
76.8325,13
76.8409,17
76.8493,27
76.8576,17
76.866,26
76.8743,14
76.8827,20
76.891,15
76.8994,23
76.9077,15
76.9161,22
76.9245,27
76.9328,13
76.9412,13
76.9495,14
76.9579,17
76.9662,13
76.9746,17
76.9829,26
76.9913,18
76.9997,20
77.008,20
77.0164,21
77.0247,23
77.0331,24
77.0414,8
77.0498,10
77.0581,16
77.0665,9
77.0749,24
77.0832,17
77.0916,8
77.0999,17
77.1083,15
77.1166,20
77.125,11
77.1333,18
77.1417,10
77.1501,17
77.1584,18
77.1668,7
77.1751,8
77.1835,11
77.1918,16
77.2002,15
77.2085,20
77.2169,14
77.2253,17
77.2336,14
77.242,18
77.2503,27
77.2587,10
77.267,14
77.2754,10
77.2837,24
77.2921,18
77.3005,20
77.3088,7
77.3172,18
77.3255,24
77.3339,17
77.3422,11
77.3506,27
77.3589,17
77.3673,14
77.3757,23
77.384,15
77.3924,16
77.4007,23
77.4091,22
77.4174,34
77.4258,18
77.4341,21
77.4425,23
77.4509,21
77.4592,34
77.4676,49
77.4759,23
77.4843,26
77.4926,30
77.501,40
77.5093,30
77.5177,33
77.5261,33
77.5344,34
77.5428,24
77.5511,40
77.5595,50
77.5678,33
77.5762,42
77.5845,36
77.5929,42
77.6013,33
77.6096,31
77.618,40
77.6263,47
77.6347,50
77.643,34
77.6514,39
77.6598,48
77.6681,40
77.6765,35
77.6848,37
77.6932,61
77.7015,46
77.7099,50
77.7182,37
77.7266,36
77.735,29
77.7433,26
77.7517,29
77.76,37
77.7684,31
77.7767,29
77.7851,26
77.7934,40
77.8018,26
77.8102,21
77.8185,22
77.8269,27
77.8352,18
77.8436,22
77.8519,33
77.8603,37
77.8686,27
77.877,15
77.8854,26
77.8937,18
77.9021,28
77.9104,21
77.9188,27
77.9271,23
77.9355,29
77.9438,18
77.9522,17
77.9606,27
77.9689,20
77.9773,9
77.9856,18
77.994,13
78.0023,21
78.0107,14
78.019,17
78.0274,15
78.0358,8
78.0441,16
78.0525,8
78.0608,10
78.0692,9
78.0775,13
78.0859,11
78.0942,9
78.1026,9
78.111,11
78.1193,9
78.1277,17
78.136,10
78.1444,8
78.1527,14
78.1611,10
78.1694,15
78.1778,4
78.1862,17
78.1945,15
78.2029,17
78.2112,11
78.2196,8
78.2279,14
78.2363,17
78.2446,14
78.253,11
78.2614,3
78.2697,15
78.2781,7
78.2864,9
78.2948,13
78.3031,11
78.3115,14
78.3198,15
78.3282,8
78.3366,18
78.3449,7
78.3533,8
78.3616,14
78.37,10
78.3783,5
78.3867,9
78.395,15
78.4034,13
78.4118,7
78.4201,7
78.4285,10
78.4368,9
78.4452,16
78.4535,16
78.4619,13
78.4702,11
78.4786,15
78.487,14
78.4953,9
78.5037,10
78.512,8
78.5204,10
78.5287,13
78.5371,16
78.5454,10
78.5538,20
78.5622,11
78.5705,8
78.5789,10
78.5872,5
78.5956,8
78.6039,9
78.6123,3
78.6206,10
78.629,15
78.6374,13
78.6457,8
78.6541,9
78.6624,7
78.6708,11
78.6791,11
78.6875,17
78.6958,9
78.7042,14
78.7126,8
78.7209,15
78.7293,9
78.7376,7
78.746,13
78.7543,9
78.7627,13
78.771,9
78.7794,16
78.7878,4
78.7961,11
78.8045,10
78.8128,14
78.8212,11
78.8295,10
78.8379,14
78.8463,11
78.8546,7
78.863,9
78.8713,8
78.8797,13
78.888,11
78.8964,9
78.9047,8
78.9131,20
78.9215,16
78.9298,13
78.9382,8
78.9465,8
78.9549,7
78.9632,10
78.9716,9
78.9799,15
78.9883,8
78.9967,17
79.005,4
79.0134,11
79.0217,15
79.0301,8
79.0384,9
79.0468,3
79.0551,8
79.0635,11
79.0719,5
79.0802,9
79.0886,5
79.0969,14
79.1053,9
79.1136,16
79.122,13
79.1303,15
79.1387,11
79.1471,10
79.1554,10
79.1638,9
79.1721,7
79.1805,2
79.1888,16
79.1972,10
79.2055,9
79.2139,7
79.2223,11
79.2306,8
79.239,11
79.2473,8
79.2557,16
79.264,11
79.2724,10
79.2807,9
79.2891,10
79.2975,11
79.3058,7
79.3142,5
79.3225,5
79.3309,3
79.3392,15
79.3476,5
79.3559,18
79.3643,13
79.3727,7
79.381,9
79.3894,11
79.3977,9
79.4061,14
79.4144,21
79.4228,10
79.4311,11
79.4395,14
79.4479,13
79.4562,14
79.4646,16
79.4729,13
79.4813,8
79.4896,10
79.498,7
79.5063,8
79.5147,9
79.5231,11
79.5314,13
79.5398,15
79.5481,9
79.5565,10
79.5648,13
79.5732,9
79.5815,7
79.5899,10
79.5983,8
79.6066,4
79.615,7
79.6233,8
79.6317,14
79.64,11
79.6484,8
79.6567,10
79.6651,9
79.6735,4
79.6818,16
79.6902,16
79.6985,8
79.7069,11
79.7152,17
79.7236,20
79.7319,11
79.7403,13
79.7487,3
79.757,10
79.7654,8
79.7737,5
79.7821,13
79.7904,8
79.7988,11
79.8071,11
79.8155,9
79.8239,11
79.8322,4
79.8406,8
79.8489,16
79.8573,9
79.8656,11
79.874,10
79.8823,17
79.8907,10
79.8991,8
79.9074,9
79.9158,7
79.9241,8
79.9325,11
79.9408,9
79.9492,9
79.9575,9
79.9659,8
79.9743,8
79.9826,11
79.991,10
79.9993,14
80.0077,16
80.016,13
80.0244,11
80.0328,9
80.0411,10
80.0495,14
80.0578,14
80.0662,11
80.0745,17
80.0829,8
80.0912,7
80.0996,14
80.108,15
80.1163,10
80.1247,11
80.133,10
80.1414,7
80.1497,15
80.1581,10
80.1664,9
80.1748,11
80.1832,7
80.1915,8
80.1999,13
80.2082,17
80.2166,15
80.2249,9
80.2333,7
80.2416,15
80.25,7
80.2584,9
80.2667,9
80.2751,16
80.2834,11
80.2918,13
80.3001,8
80.3085,4
80.3168,8
80.3252,15
80.3336,9
80.3419,7
80.3503,13
80.3586,11
80.367,10
80.3753,10
80.3837,9
80.392,11
80.4004,18
80.4088,4
80.4171,18
80.4255,11
80.4338,13
80.4422,10
80.4505,15
80.4589,20
80.4672,18
80.4756,10
80.484,3
80.4923,10
80.5007,5
80.509,7
80.5174,13
80.5257,11
80.5341,4
80.5424,17
80.5508,5
80.5592,16
80.5675,9
80.5759,16
80.5842,9
80.5926,10
80.6009,11
80.6093,9
80.6176,11
80.626,7
80.6344,11
80.6427,4
80.6511,10
80.6594,9
80.6678,10
80.6761,17
80.6845,3
80.6928,8
80.7012,15
80.7096,17
80.7179,5
80.7263,10
80.7346,18
80.743,7
80.7513,9
80.7597,11
80.768,14
80.7764,14
80.7848,13
80.7931,13
80.8015,10
80.8098,14
80.8182,13
80.8265,16
80.8349,9
80.8432,16
80.8516,9
80.86,15
80.8683,9
80.8767,14
80.885,8
80.8934,5
80.9017,14
80.9101,18
80.9184,15
80.9268,7
80.9352,8
80.9435,11
80.9519,11
80.9602,9
80.9686,10
80.9769,7
80.9853,9
80.9936,14
81.002,10
81.0104,10
81.0187,18
81.0271,8
81.0354,4
81.0438,11
81.0521,10
81.0605,7
81.0688,16
81.0772,8
81.0856,15
81.0939,9
81.1023,11
81.1106,9
81.119,15
81.1273,10
81.1357,9
81.144,13
81.1524,15
81.1608,11
81.1691,9
81.1775,8
81.1858,9
81.1942,8
81.2025,5
81.2109,8
81.2193,14
81.2276,9
81.236,27
81.2443,9
81.2527,5
81.261,7
81.2694,11
81.2777,10
81.2861,14
81.2945,13
81.3028,5
81.3112,18
81.3195,4
81.3279,15
81.3362,15
81.3446,10
81.3529,10
81.3613,11
81.3697,14
81.378,14
81.3864,8
81.3947,16
81.4031,5
81.4114,8
81.4198,7
81.4281,14
81.4365,4
81.4449,10
81.4532,7
81.4616,13
81.4699,9
81.4783,10
81.4866,8
81.495,15
81.5033,7
81.5117,15
81.5201,9
81.5284,17
81.5368,11
81.5451,7
81.5535,9
81.5618,13
81.5702,10
81.5785,20
81.5869,10
81.5953,16
81.6036,4
81.612,5
81.6203,5
81.6287,13
81.637,8
81.6454,8
81.6537,9
81.6621,7
81.6705,16
81.6788,9
81.6872,8
81.6955,16
81.7039,13
81.7122,10
81.7206,8
81.7289,10
81.7373,11
81.7457,7
81.754,17
81.7624,10
81.7707,8
81.7791,11
81.7874,7
81.7958,8
81.8041,9
81.8125,14
81.8209,7
81.8292,16
81.8376,9
81.8459,11
81.8543,14
81.8626,11
81.871,7
81.8793,13
81.8877,8
81.8961,8
81.9044,7
81.9128,13
81.9211,15
81.9295,8
81.9378,14
81.9462,8
81.9545,14
81.9629,21
81.9713,13
81.9796,7
81.988,15
81.9963,9
82.0047,9
82.013,16
82.0214,9
82.0297,10
82.0381,9
82.0465,5
82.0548,15
82.0632,17
82.0715,8
82.0799,8
82.0882,11
82.0966,17
82.1049,13
82.1133,10
82.1217,10
82.13,11
82.1384,18
82.1467,9
82.1551,13
82.1634,7
82.1718,16
82.1801,8
82.1885,15
82.1969,13
82.2052,7
82.2136,22
82.2219,17
82.2303,14
82.2386,15
82.247,13
82.2553,7
82.2637,15
82.2721,15
82.2804,5
82.2888,11
82.2971,11
82.3055,7
82.3138,11
82.3222,14
82.3305,17
82.3389,7
82.3473,9
82.3556,7
82.364,11
82.3723,13
82.3807,13
82.389,13
82.3974,8
82.4058,3
82.4141,11
82.4225,11
82.4308,8
82.4392,10
82.4475,5
82.4559,3
82.4642,7
82.4726,11
82.481,9
82.4893,11
82.4977,9
82.506,5
82.5144,17
82.5227,9
82.5311,11
82.5394,16
82.5478,14
82.5562,16
82.5645,10
82.5729,5
82.5812,10
82.5896,14
82.5979,13
82.6063,13
82.6146,7
82.623,16
82.6314,3
82.6397,15
82.6481,8
82.6564,5
82.6648,9
82.6731,14
82.6815,10
82.6898,5
82.6982,13
82.7066,8
82.7149,13
82.7233,5
82.7316,14
82.74,3
82.7483,7
82.7567,14
82.765,15
82.7734,4
82.7818,16
82.7901,13
82.7985,15
82.8068,4
82.8152,5
82.8235,10
82.8319,15
82.8402,8
82.8486,8
82.857,14
82.8653,13
82.8737,7
82.882,7
82.8904,3
82.8987,10
82.9071,4
82.9154,9
82.9238,9
82.9322,8
82.9405,16
82.9489,4
82.9572,9
82.9656,15
82.9739,10
82.9823,11
82.9906,11
82.999,13
83.0074,9
83.0157,14
83.0241,10
83.0324,16
83.0408,9
83.0491,14
83.0575,10
83.0658,11
83.0742,9
83.0826,15
83.0909,11
83.0993,10
83.1076,13
83.116,13
83.1243,3
83.1327,9
83.141,7
83.1494,13
83.1578,9
83.1661,13
83.1745,8
83.1828,17
83.1912,11
83.1995,13
83.2079,13
83.2162,10
83.2246,21
83.233,8
83.2413,5
83.2497,24
83.258,13
83.2664,18
83.2747,8
83.2831,20
83.2914,5
83.2998,5
83.3082,11
83.3165,14
83.3249,15
83.3332,8
83.3416,11
83.3499,10
83.3583,7
83.3666,7
83.375,14
83.3834,13
83.3917,5
83.4001,4
83.4084,7
83.4168,13
83.4251,13
83.4335,10
83.4418,14
83.4502,9
83.4586,10
83.4669,8
83.4753,11
83.4836,10
83.492,5
83.5003,10
83.5087,11
83.5171,9
83.5254,7
83.5338,14
83.5421,4
83.5505,8
83.5588,9
83.5672,7
83.5755,11
83.5839,10
83.5923,13
83.6006,14
83.609,10
83.6173,15
83.6257,9
83.634,8
83.6424,9
83.6507,13
83.6591,8
83.6675,11
83.6758,16
83.6842,7
83.6925,7
83.7009,14
83.7092,16
83.7176,10
83.7259,13
83.7343,5
83.7427,7
83.751,15
83.7594,18
83.7677,2
83.7761,7
83.7844,8
83.7928,11
83.8011,5
83.8095,11
83.8179,9
83.8262,7
83.8346,16
83.8429,18
83.8513,13
83.8596,10
83.868,7
83.8763,14
83.8847,15
83.8931,11
83.9014,8
83.9098,3
83.9181,14
83.9265,9
83.9348,10
83.9432,9
83.9515,5
83.9599,9
83.9683,8
83.9766,18
83.985,11
83.9933,9
84.0017,9
84.01,13
84.0184,11
84.0267,7
84.0351,14
84.0435,5
84.0518,11
84.0602,14
84.0685,11
84.0769,5
84.0852,9
84.0936,14
84.1019,15
84.1103,15
84.1187,9
84.127,4
84.1354,13
84.1437,11
84.1521,10
84.1604,13
84.1688,14
84.1771,7
84.1855,5
84.1939,13
84.2022,8
84.2106,13
84.2189,20
84.2273,15
84.2356,8
84.244,7
84.2523,16
84.2607,11
84.2691,8
84.2774,9
84.2858,11
84.2941,16
84.3025,7
84.3108,9
84.3192,18
84.3275,11
84.3359,14
84.3443,8
84.3526,14
84.361,17
84.3693,14
84.3777,7
84.386,18
84.3944,10
84.4027,8
84.4111,11
84.4195,8
84.4278,10
84.4362,8
84.4445,9
84.4529,10
84.4612,17
84.4696,11
84.4779,8
84.4863,16
84.4947,11
84.503,16
84.5114,13
84.5197,15
84.5281,13
84.5364,3
84.5448,9
84.5531,15
84.5615,11
84.5699,16
84.5782,3
84.5866,3
84.5949,13
84.6033,15
84.6116,13
84.62,15
84.6283,4
84.6367,10
84.6451,9
84.6534,11
84.6618,10
84.6701,10
84.6785,7
84.6868,5
84.6952,11
84.7036,5
84.7119,8
84.7203,4
84.7286,8
84.737,9
84.7453,13
84.7537,10
84.762,16
84.7704,7
84.7788,11
84.7871,13
84.7955,8
84.8038,9
84.8122,5
84.8205,10
84.8289,10
84.8372,8
84.8456,15
84.854,11
84.8623,11
84.8707,9
84.879,5
84.8874,11
84.8957,15
84.9041,14
84.9124,7
84.9208,7
84.9292,7
84.9375,8
84.9459,13
84.9542,15
84.9626,11
84.9709,10
84.9793,13
84.9876,15
84.996,11
85.0044,8
85.0127,11
85.0211,9
85.0294,16
85.0378,13
85.0461,9
85.0545,14
85.0628,5
85.0712,9
85.0796,10
85.0879,7
85.0963,9
85.1046,7
85.113,7
85.1213,9
85.1297,13
85.138,16
85.1464,4
85.1548,9
85.1631,10
85.1715,8
85.1798,8
85.1882,9
85.1965,10
85.2049,7
85.2132,9
85.2216,7
85.23,13
85.2383,9
85.2467,13
85.255,7
85.2634,10
85.2717,14
85.2801,14
85.2884,10
85.2968,9
85.3052,11
85.3135,10
85.3219,10
85.3302,22
85.3386,10
85.3469,15
85.3553,7
85.3636,11
85.372,5
85.3804,13
85.3887,14
85.3971,14
85.4054,4
85.4138,11
85.4221,13
85.4305,11
85.4388,7
85.4472,13
85.4556,18
85.4639,13
85.4723,5
85.4806,10
85.489,7
85.4973,8
85.5057,7
85.514,5
85.5224,10
85.5308,5
85.5391,10
85.5475,9
85.5558,13
85.5642,10
85.5725,9
85.5809,8
85.5892,4
85.5976,4
85.606,8
85.6143,8
85.6227,5
85.631,5
85.6394,9
85.6477,14
85.6561,9
85.6644,8
85.6728,13
85.6812,10
85.6895,11
85.6979,10
85.7062,7
85.7146,14
85.7229,14
85.7313,11
85.7396,11
85.748,10
85.7564,14
85.7647,9
85.7731,8
85.7814,15
85.7898,11
85.7981,22
85.8065,13
85.8148,11
85.8232,8
85.8316,14
85.8399,5
85.8483,13
85.8566,15
85.865,9
85.8733,13
85.8817,13
85.8901,8
85.8984,5
85.9068,5
85.9151,11
85.9235,11
85.9318,8
85.9402,13
85.9485,7
85.9569,13
85.9653,14
85.9736,2
85.982,15
85.9903,11
85.9987,17
86.007,7
86.0154,16
86.0237,10
86.0321,14
86.0405,10
86.0488,14
86.0572,10
86.0655,15
86.0739,16
86.0822,11
86.0906,13
86.0989,9
86.1073,8
86.1157,11
86.124,14
86.1324,13
86.1407,8
86.1491,9
86.1574,4
86.1658,4
86.1741,11
86.1825,8
86.1909,14
86.1992,9
86.2076,14
86.2159,16
86.2243,7
86.2326,7
86.241,11
86.2493,9
86.2577,15
86.2661,13
86.2744,14
86.2828,9
86.2911,9
86.2995,16
86.3078,8
86.3162,3
86.3245,3
86.3329,11
86.3413,8
86.3496,10
86.358,8
86.3663,11
86.3747,15
86.383,7
86.3914,14
86.3997,8
86.4081,14
86.4165,8
86.4248,13
86.4332,8
86.4415,4
86.4499,2
86.4582,9
86.4666,10
86.4749,8
86.4833,9
86.4917,15
86.5,22
86.5084,17
86.5167,11
86.5251,10
86.5334,14
86.5418,9
86.5501,10
86.5585,11
86.5669,15
86.5752,8
86.5836,5
86.5919,16
86.6003,8
86.6086,13
86.617,7
86.6253,13
86.6337,13
86.6421,9
86.6504,11
86.6588,7
86.6671,7
86.6755,10
86.6838,4
86.6922,16
86.7005,10
86.7089,5
86.7173,9
86.7256,15
86.734,7
86.7423,7
86.7507,14
86.759,16
86.7674,11
86.7757,13
86.7841,11
86.7925,5
86.8008,10
86.8092,11
86.8175,11
86.8259,14
86.8342,8
86.8426,10
86.8509,10
86.8593,13
86.8677,13
86.876,13
86.8844,4
86.8927,13
86.9011,17
86.9094,10
86.9178,17
86.9261,17
86.9345,11
86.9429,9
86.9512,9
86.9596,17
86.9679,21
86.9763,29
86.9846,20
86.993,16
87.0013,15
87.0097,21
87.0181,18
87.0264,16
87.0348,18
87.0431,18
87.0515,14
87.0598,15
87.0682,13
87.0766,21
87.0849,10
87.0933,14
87.1016,15
87.11,16
87.1183,8
87.1267,20
87.135,17
87.1434,17
87.1518,20
87.1601,13
87.1685,4
87.1768,18
87.1852,13
87.1935,10
87.2019,14
87.2102,10
87.2186,15
87.227,9
87.2353,18
87.2437,18
87.252,5
87.2604,14
87.2687,15
87.2771,17
87.2854,16
87.2938,13
87.3022,9
87.3105,10
87.3189,16
87.3272,10
87.3356,5
87.3439,9
87.3523,13
87.3606,8
87.369,9
87.3774,11
87.3857,10
87.3941,9
87.4024,10
87.4108,14
87.4191,11
87.4275,14
87.4358,15
87.4442,11
87.4526,9
87.4609,10
87.4693,16
87.4776,10
87.486,11
87.4943,14
87.5027,15
87.511,4
87.5194,8
87.5278,9
87.5361,14
87.5445,14
87.5528,5
87.5612,15
87.5695,14
87.5779,17
87.5862,10
87.5946,14
87.603,7
87.6113,13
87.6197,14
87.628,14
87.6364,7
87.6447,13
87.6531,17
87.6614,13
87.6698,13
87.6782,11
87.6865,9
87.6949,9
87.7032,10
87.7116,14
87.7199,8
87.7283,17
87.7366,8
87.745,15
87.7534,9
87.7617,7
87.7701,11
87.7784,9
87.7868,15
87.7951,9
87.8035,13
87.8118,18
87.8202,5
87.8286,20
87.8369,17
87.8453,20
87.8536,9
87.862,9
87.8703,11
87.8787,13
87.887,7
87.8954,5
87.9038,9
87.9121,16
87.9205,10
87.9288,13
87.9372,17
87.9455,9
87.9539,14
87.9622,11
87.9706,8
87.979,5
87.9873,14
87.9957,15
88.004,14
88.0124,9
88.0207,14
88.0291,13
88.0374,13
88.0458,11
88.0542,11
88.0625,9
88.0709,11
88.0792,10
88.0876,11
88.0959,13
88.1043,7
88.1126,7
88.121,11
88.1294,10
88.1377,7
88.1461,15
88.1544,10
88.1628,7
88.1711,8
88.1795,15
88.1878,8
88.1962,11
88.2046,10
88.2129,15
88.2213,11
88.2296,13
88.238,11
88.2463,11
88.2547,17
88.2631,3
88.2714,11
88.2798,10
88.2881,7
88.2965,9
88.3048,9
88.3132,10
88.3215,14
88.3299,10
88.3383,13
88.3466,21
88.355,5
88.3633,15
88.3717,13
88.38,8
88.3884,8
88.3967,13
88.4051,14
88.4135,11
88.4218,13
88.4302,5
88.4385,9
88.4469,11
88.4552,8
88.4636,9
88.4719,5
88.4803,7
88.4887,11
88.497,14
88.5054,4
88.5137,9
88.5221,9
88.5304,10
88.5388,13
88.5471,8
88.5555,7
88.5639,17
88.5722,8
88.5806,13
88.5889,10
88.5973,18
88.6056,15
88.614,17
88.6223,8
88.6307,8
88.6391,4
88.6474,14
88.6558,13
88.6641,10
88.6725,9
88.6808,15
88.6892,13
88.6975,8
88.7059,14
88.7143,8
88.7226,14
88.731,8
88.7393,7
88.7477,13
88.756,7
88.7644,17
88.7727,10
88.7811,16
88.7895,13
88.7978,14
88.8062,4
88.8145,11
88.8229,5
88.8312,14
88.8396,13
88.8479,15
88.8563,10
88.8647,17
88.873,16
88.8814,8
88.8897,5
88.8981,10
88.9064,15
88.9148,11
88.9231,7
88.9315,16
88.9399,5
88.9482,9
88.9566,10
88.9649,4
88.9733,13
88.9816,11
88.99,10
88.9983,13
89.0067,11
89.0151,10
89.0234,5
89.0318,8
89.0401,11
89.0485,20
89.0568,9
89.0652,11
89.0735,11
89.0819,8
89.0903,13
89.0986,23
89.107,10
89.1153,8
89.1237,13
89.132,7
89.1404,8
89.1487,8
89.1571,8
89.1655,7
89.1738,4
89.1822,11
89.1905,9
89.1989,11
89.2072,15
89.2156,5
89.2239,13
89.2323,11
89.2407,16
89.249,4
89.2574,9
89.2657,13
89.2741,15
89.2824,18
89.2908,10
89.2991,10
89.3075,13
89.3159,15
89.3242,17
89.3326,14
89.3409,9
89.3493,10
89.3576,8
89.366,11
89.3743,8
89.3827,21
89.3911,14
89.3994,8
89.4078,5
89.4161,9
89.4245,8
89.4328,9
89.4412,14
89.4496,15
89.4579,9
89.4663,9
89.4746,5
89.483,10
89.4913,8
89.4997,8
89.508,4
89.5164,16
89.5248,13
89.5331,13
89.5415,8
89.5498,9
89.5582,17
89.5665,10
89.5749,14
89.5832,7
89.5916,8
89.6,8
89.6083,9
89.6167,8
89.625,9
89.6334,13
89.6417,11
89.6501,13
89.6584,13
89.6668,5
89.6752,14
89.6835,10
89.6919,22
89.7002,15
89.7086,4
89.7169,8
89.7253,8
89.7336,11
89.742,10
89.7504,13
89.7587,8
89.7671,10
89.7754,16
89.7838,7
89.7921,3
89.8005,11
89.8088,7
89.8172,10
89.8256,11
89.8339,20
89.8423,10
89.8506,11
89.859,10
89.8673,11
89.8757,14
89.884,8
89.8924,10
89.9008,11
89.9091,16
89.9175,10
89.9258,10
89.9342,9
89.9425,5
89.9509,15
89.9592,9
89.9676,15
89.976,3
89.9843,9
89.9927,11
90.001,8
90.0094,14
90.0177,16
90.0261,13
90.0344,9
90.0428,11
90.0512,10
90.0595,5
90.0679,5
90.0762,11
90.0846,11
90.0929,11
90.1013,8
90.1096,10
90.118,3
90.1264,9
90.1347,11
90.1431,3
90.1514,9
90.1598,14
90.1681,5
90.1765,9
90.1848,14
90.1932,8
90.2016,10
90.2099,14
90.2183,11
90.2266,8
90.235,11
90.2433,13
90.2517,15
90.26,9
90.2684,8
90.2768,17
90.2851,9
90.2935,11
90.3018,15
90.3102,11
90.3185,16
90.3269,11
90.3352,10
90.3436,15
90.352,15
90.3603,13
90.3687,11
90.377,11
90.3854,10
90.3937,15
90.4021,15
90.4104,11
90.4188,9
90.4272,8
90.4355,11
90.4439,7
90.4522,13
90.4606,10
90.4689,9
90.4773,15
90.4856,9
90.494,10
90.5024,15
90.5107,16
90.5191,8
90.5274,7
90.5358,13
90.5441,7
90.5525,10
90.5608,2
90.5692,7
90.5776,13
90.5859,11
90.5943,13
90.6026,7
90.611,7
90.6193,11
90.6277,5
90.6361,4
90.6444,10
90.6528,9
90.6611,17
90.6695,13
90.6778,9
90.6862,14
90.6945,7
90.7029,10
90.7113,8
90.7196,11
90.728,16
90.7363,7
90.7447,14
90.753,11
90.7614,11
90.7697,11
90.7781,8
90.7865,13
90.7948,10
90.8032,10
90.8115,7
90.8199,9
90.8282,13
90.8366,9
90.8449,9
90.8533,10
90.8617,15
90.87,14
90.8784,9
90.8867,13
90.8951,14
90.9034,13
90.9118,13
90.9201,9
90.9285,15
90.9369,20
90.9452,5
90.9536,9
90.9619,8
90.9703,8
90.9786,14
90.987,16
90.9953,4
91.0037,11
91.0121,10
91.0204,16
91.0288,14
91.0371,10
91.0455,10
91.0538,7
91.0622,7
91.0705,17
91.0789,9
91.0873,8
91.0956,4
91.104,8
91.1123,7
91.1207,13
91.129,5
91.1374,3
91.1457,9
91.1541,13
91.1625,11
91.1708,11
91.1792,18
91.1875,14
91.1959,10
91.2042,9
91.2126,9
91.2209,9
91.2293,10
91.2377,13
91.246,4
91.2544,10
91.2627,15
91.2711,14
91.2794,9
91.2878,8
91.2961,11
91.3045,13
91.3129,15
91.3212,11
91.3296,15
91.3379,10
91.3463,8
91.3546,11
91.363,15
91.3713,13
91.3797,7
91.3881,10
91.3964,8
91.4048,15
91.4131,10
91.4215,8
91.4298,14
91.4382,13
91.4465,10
91.4549,9
91.4633,7
91.4716,5
91.48,18
91.4883,13
91.4967,9
91.505,9
91.5134,10
91.5217,13
91.5301,10
91.5385,8
91.5468,8
91.5552,13
91.5635,10
91.5719,11
91.5802,11
91.5886,15
91.5969,4
91.6053,17
91.6137,18
91.622,8
91.6304,15
91.6387,4
91.6471,5
91.6554,13
91.6638,8
91.6721,9
91.6805,10
91.6889,5
91.6972,8
91.7056,16
91.7139,17
91.7223,10
91.7306,17
91.739,16
91.7474,14
91.7557,10
91.7641,13
91.7724,9
91.7808,15
91.7891,9
91.7975,7
91.8058,9
91.8142,7
91.8226,5
91.8309,3
91.8393,8
91.8476,4
91.856,18
91.8643,13
91.8727,11
91.881,4
91.8894,8
91.8978,4
91.9061,14
91.9145,3
91.9228,10
91.9312,10
91.9395,10
91.9479,14
91.9562,9
91.9646,10
91.973,8
91.9813,9
91.9897,9
91.998,17
92.0064,17
92.0147,11
92.0231,8
92.0314,16
92.0398,13
92.0482,15
92.0565,14
92.0649,15
92.0732,8
92.0816,10
92.0899,10
92.0983,10
92.1066,8
92.115,11
92.1234,10
92.1317,8
92.1401,8
92.1484,14
92.1568,13
92.1651,8
92.1735,7
92.1818,16
92.1902,8
92.1986,8
92.2069,10
92.2153,11
92.2236,4
92.232,10
92.2403,9
92.2487,11
92.257,21
92.2654,11
92.2738,10
92.2821,10
92.2905,11
92.2988,9
92.3072,16
92.3155,9
92.3239,10
92.3322,16
92.3406,14
92.349,14
92.3573,8
92.3657,9
92.374,7
92.3824,16
92.3907,4
92.3991,15
92.4074,13
92.4158,15
92.4242,10
92.4325,15
92.4409,13
92.4492,11
92.4576,16
92.4659,20
92.4743,16
92.4826,8
92.491,14
92.4994,13
92.5077,9
92.5161,21
92.5244,15
92.5328,13
92.5411,13
92.5495,22
92.5578,26
92.5662,26
92.5746,23
92.5829,24
92.5913,23
92.5996,26
92.608,31
92.6163,29
92.6247,35
92.633,29
92.6414,36
92.6498,43
92.6581,39
92.6665,35
92.6748,45
92.6832,36
92.6915,52
92.6999,40
92.7082,49
92.7166,68
92.725,58
92.7333,56
92.7417,67
92.75,48
92.7584,50
92.7667,40
92.7751,35
92.7834,33
92.7918,35
92.8002,35
92.8085,31
92.8169,26
92.8252,28
92.8336,23
92.8419,20
92.8503,29
92.8586,28
92.867,22
92.8754,17
92.8837,9
92.8921,16
92.9004,22
92.9088,9
92.9171,20
92.9255,14
92.9339,22
92.9422,33
92.9506,28
92.9589,28
92.9673,23
92.9756,28
92.984,28
92.9923,34
93.0007,29
93.0091,33
93.0174,35
93.0258,40
93.0341,26
93.0425,27
93.0508,23
93.0592,30
93.0675,24
93.0759,16
93.0843,28
93.0926,17
93.101,7
93.1093,22
93.1177,14
93.126,17
93.1344,14
93.1427,14
93.1511,14
93.1595,10
93.1678,7
93.1762,13
93.1845,7
93.1929,10
93.2012,11
93.2096,16
93.2179,14
93.2263,5
93.2347,14
93.243,16
93.2514,8
93.2597,13
93.2681,17
93.2764,9
93.2848,13
93.2931,11
93.3015,15
93.3099,13
93.3182,14
93.3266,13
93.3349,4
93.3433,11
93.3516,9
93.36,10
93.3683,10
93.3767,15
93.3851,8
93.3934,17
93.4018,9
93.4101,15
93.4185,16
93.4268,13
93.4352,8
93.4435,15
93.4519,9
93.4603,4
93.4686,17
93.477,5
93.4853,14
93.4937,13
93.502,13
93.5104,8
93.5187,11
93.5271,16
93.5355,18
93.5438,9
93.5522,10
93.5605,13
93.5689,14
93.5772,14
93.5856,8
93.5939,7
93.6023,17
93.6107,9
93.619,11
93.6274,11
93.6357,14
93.6441,9
93.6524,14
93.6608,9
93.6691,13
93.6775,11
93.6859,5
93.6942,7
93.7026,14
93.7109,10
93.7193,7
93.7276,10
93.736,4
93.7443,9
93.7527,15
93.7611,20
93.7694,9
93.7778,9
93.7861,13
93.7945,13
93.8028,9
93.8112,11
93.8195,14
93.8279,15
93.8363,3
93.8446,13
93.853,9
93.8613,9
93.8697,8
93.878,10
93.8864,10
93.8947,8
93.9031,11
93.9115,8
93.9198,13
93.9282,8
93.9365,16
93.9449,16
93.9532,14
93.9616,11
93.9699,16
93.9783,7
93.9867,11
93.995,10
94.0034,9
94.0117,15
94.0201,7
94.0284,8
94.0368,7
94.0451,3
94.0535,14
94.0619,11
94.0702,16
94.0786,10
94.0869,13
94.0953,7
94.1036,13
94.112,13
94.1204,10
94.1287,20
94.1371,17
94.1454,3
94.1538,14
94.1621,15
94.1705,14
94.1788,8
94.1872,9
94.1956,7
94.2039,11
94.2123,13
94.2206,11
94.229,14
94.2373,11
94.2457,11
94.254,11
94.2624,8
94.2708,7
94.2791,16
94.2875,8
94.2958,8
94.3042,7
94.3125,10
94.3209,2
94.3292,8
94.3376,15
94.346,10
94.3543,8
94.3627,7
94.371,5
94.3794,7
94.3877,9
94.3961,10
94.4044,10
94.4128,13
94.4212,7
94.4295,9
94.4379,15
94.4462,9
94.4546,18
94.4629,14
94.4713,8
94.4796,13
94.488,11
94.4964,8
94.5047,13
94.5131,5
94.5214,13
94.5298,11
94.5381,11
94.5465,10
94.5548,11
94.5632,9
94.5716,8
94.5799,11
94.5883,4
94.5966,9
94.605,5
94.6133,17
94.6217,10
94.63,11
94.6384,8
94.6468,7
94.6551,10
94.6635,8
94.6718,10
94.6802,15
94.6885,17
94.6969,10
94.7052,4
94.7136,10
94.722,8
94.7303,7
94.7387,13
94.747,5
94.7554,5
94.7637,11
94.7721,11
94.7804,9
94.7888,13
94.7972,16
94.8055,13
94.8139,7
94.8222,16
94.8306,5
94.8389,16
94.8473,11
94.8556,11
94.864,8
94.8724,10
94.8807,15
94.8891,5
94.8974,11
94.9058,15
94.9141,9
94.9225,8
94.9308,8
94.9392,13
94.9476,8
94.9559,8
94.9643,11
94.9726,10
94.981,10
94.9893,13
94.9977,7
95.006,5
95.0144,10
95.0228,11
95.0311,17
95.0395,10
95.0478,10
95.0562,11
95.0645,20
95.0729,13
95.0812,14
95.0896,11
95.098,16
95.1063,14
95.1147,11
95.123,10
95.1314,8
95.1397,14
95.1481,16
95.1564,13
95.1648,13
95.1732,14
95.1815,8
95.1899,11
95.1982,15
95.2066,5
95.2149,4
95.2233,7
95.2316,16
95.24,9
95.2484,8
95.2567,0
95.2651,8
95.2734,9
95.2818,5
95.2901,10
95.2985,10
95.3069,9
95.3152,13
95.3236,11
95.3319,9
95.3403,14
95.3486,8
95.357,10
95.3653,15
95.3737,15
95.3821,9
95.3904,14
95.3988,11
95.4071,9
95.4155,17
95.4238,7
95.4322,5
95.4405,8
95.4489,11
95.4573,8
95.4656,8
95.474,11
95.4823,10
95.4907,15
95.499,10
95.5074,9
95.5157,7
95.5241,13
95.5325,14
95.5408,10
95.5492,8
95.5575,5
95.5659,10
95.5742,13
95.5826,9
95.5909,8
95.5993,18
95.6077,11
95.616,4
95.6244,10
95.6327,8
95.6411,9
95.6494,10
95.6578,9
95.6661,8
95.6745,13
95.6829,9
95.6912,10
95.6996,8
95.7079,11
95.7163,5
95.7246,11
95.733,10
95.7413,8
95.7497,7
95.7581,10
95.7664,4
95.7748,2
95.7831,11
95.7915,8
95.7998,5
95.8082,15
95.8165,5
95.8249,15
95.8333,13
95.8416,13
95.85,11
95.8583,8
95.8667,8
95.875,9
95.8834,15
95.8917,13
95.9001,8
95.9085,10
95.9168,8
95.9252,9
95.9335,4
95.9419,11
95.9502,13
95.9586,13
95.9669,4
95.9753,5
95.9837,7
95.992,15
96.0004,17
96.0087,13
96.0171,14
96.0254,7
96.0338,9
96.0421,11
96.0505,5
96.0589,15
96.0672,4
96.0756,7
96.0839,7
96.0923,14
96.1006,11
96.109,9
96.1173,14
96.1257,11
96.1341,20
96.1424,5
96.1508,15
96.1591,7
96.1675,15
96.1758,16
96.1842,14
96.1925,10
96.2009,7
96.2093,9
96.2176,11
96.226,9
96.2343,11
96.2427,11
96.251,11
96.2594,7
96.2677,9
96.2761,11
96.2845,11
96.2928,7
96.3012,13
96.3095,14
96.3179,10
96.3262,5
96.3346,8
96.3429,7
96.3513,5
96.3597,9
96.368,5
96.3764,14
96.3847,8
96.3931,10
96.4014,11
96.4098,10
96.4181,8
96.4265,7
96.4349,10
96.4432,14
96.4516,10
96.4599,13
96.4683,13
96.4766,5
96.485,13
96.4934,13
96.5017,10
96.5101,9
96.5184,16
96.5268,9
96.5351,9
96.5435,15
96.5518,15
96.5602,9
96.5686,8
96.5769,13
96.5853,13
96.5936,10
96.602,8
96.6103,8
96.6187,15
96.627,15
96.6354,8
96.6438,15
96.6521,5
96.6605,14
96.6688,9
96.6772,9
96.6855,11
96.6939,10
96.7022,11
96.7106,5
96.719,9
96.7273,13
96.7357,11
96.744,10
96.7524,20
96.7607,11
96.7691,11
96.7774,8
96.7858,7
96.7942,11
96.8025,11
96.8109,13
96.8192,13
96.8276,13
96.8359,11
96.8443,15
96.8526,21
96.861,13
96.8694,14
96.8777,7
96.8861,8
96.8944,13
96.9028,9
96.9111,8
96.9195,8
96.9278,10
96.9362,10
96.9446,22
96.9529,16
96.9613,7
96.9696,15
96.978,9
96.9863,13
96.9947,8
97.003,10
97.0114,10
97.0198,13
97.0281,7
97.0365,4
97.0448,14
97.0532,15
97.0615,7
97.0699,10
97.0782,9
97.0866,13
97.095,13
97.1033,9
97.1117,10
97.12,16
97.1284,3
97.1367,16
97.1451,15
97.1534,10
97.1618,4
97.1702,5
97.1785,15
97.1869,11
97.1952,5
97.2036,7
97.2119,10
97.2203,17
97.2286,9
97.237,9
97.2454,7
97.2537,14
97.2621,9
97.2704,7
97.2788,13
97.2871,7
97.2955,14
97.3038,17
97.3122,17
97.3206,13
97.3289,8
97.3373,8
97.3456,13
97.354,11
97.3623,10
97.3707,8
97.379,11
97.3874,5
97.3958,15
97.4041,10
97.4125,10
97.4208,18
97.4292,16
97.4375,10
97.4459,13
97.4542,13
97.4626,7
97.471,9
97.4793,10
97.4877,8
97.496,11
97.5044,15
97.5127,11
97.5211,7
97.5294,13
97.5378,13
97.5462,8
97.5545,7
97.5629,10
97.5712,11
97.5796,11
97.5879,5
97.5963,7
97.6046,15
97.613,13
97.6214,5
97.6297,13
97.6381,13
97.6464,15
97.6548,11
97.6631,11
97.6715,9
97.6799,13
97.6882,11
97.6966,16
97.7049,18
97.7133,9
97.7216,9
97.73,11
97.7383,10
97.7467,16
97.7551,7
97.7634,3
97.7718,13
97.7801,10
97.7885,8
97.7968,9
97.8052,10
97.8135,14
97.8219,11
97.8303,13
97.8386,8
97.847,5
97.8553,5
97.8637,8
97.872,11
97.8804,10
97.8887,15
97.8971,9
97.9055,14
97.9138,7
97.9222,10
97.9305,3
97.9389,7
97.9472,14
97.9556,11
97.9639,16
97.9723,14
97.9807,8
97.989,15
97.9974,8
98.0057,15
98.0141,8
98.0224,17
98.0308,8
98.0391,4
98.0475,7
98.0559,10
98.0642,7
98.0726,13
98.0809,14
98.0893,9
98.0976,8
98.106,10
98.1143,9
98.1227,10
98.1311,11
98.1394,10
98.1478,14
98.1561,9
98.1645,9
98.1728,9
98.1812,13
98.1895,13
98.1979,15
98.2063,11
98.2146,9
98.223,13
98.2313,13
98.2397,13
98.248,8
98.2564,4
98.2647,11
98.2731,11
98.2815,7
98.2898,10
98.2982,13
98.3065,8
98.3149,4
98.3232,10
98.3316,9
98.3399,10
98.3483,14
98.3567,9
98.365,7
98.3734,8
98.3817,18
98.3901,7
98.3984,14
98.4068,13
98.4151,16
98.4235,4
98.4319,14
98.4402,7
98.4486,7
98.4569,9
98.4653,10
98.4736,10
98.482,4
98.4903,9
98.4987,8
98.5071,10
98.5154,10
98.5238,4
98.5321,9
98.5405,15
98.5488,4
98.5572,9
98.5655,8
98.5739,5
98.5823,8
98.5906,9
98.599,14
98.6073,13
98.6157,5
98.624,14
98.6324,4
98.6407,11
98.6491,7
98.6575,14
98.6658,17
98.6742,18
98.6825,13
98.6909,9
98.6992,5
98.7076,7
98.7159,14
98.7243,8
98.7327,16
98.741,9
98.7494,15
98.7577,15
98.7661,9
98.7744,8
98.7828,14
98.7911,8
98.7995,4
98.8079,14
98.8162,9
98.8246,13
98.8329,8
98.8413,13
98.8496,11
98.858,7
98.8664,7
98.8747,11
98.8831,14
98.8914,17
98.8998,14
98.9081,14
98.9165,11
98.9248,13
98.9332,13
98.9416,7
98.9499,9
98.9583,8
98.9666,10
98.975,11
98.9833,10
98.9917,20
99,9
99.0084,11
99.0168,13
99.0251,8
99.0335,11
99.0418,14
99.0502,11
99.0585,9
99.0669,2
99.0752,13
99.0836,9
99.092,13
99.1003,4
99.1087,9
99.117,10
99.1254,11
99.1337,15
99.1421,10
99.1504,15
99.1588,7
99.1672,7
99.1755,13
99.1839,13
99.1922,8
99.2006,11
99.2089,11
99.2173,15
99.2256,5
99.234,20
99.2424,14
99.2507,8
99.2591,7
99.2674,9
99.2758,9
99.2841,8
99.2925,15
99.3008,15
99.3092,9
99.3176,11
99.3259,8
99.3343,4
99.3426,10
99.351,5
99.3593,8
99.3677,16
99.376,4
99.3844,10
99.3928,13
99.4011,11
99.4095,8
99.4178,5
99.4262,8
99.4345,11
99.4429,16
99.4512,9
99.4596,3
99.468,11
99.4763,3
99.4847,3
99.493,10
99.5014,13
99.5097,9
99.5181,13
99.5264,8
99.5348,10
99.5432,10
99.5515,14
99.5599,7
99.5682,5
99.5766,11
99.5849,16
99.5933,17
99.6016,10
99.61,11
99.6184,9
99.6267,20
99.6351,13
99.6434,11
99.6518,8
99.6601,9
99.6685,4
99.6768,5
99.6852,7
99.6936,9
99.7019,15
99.7103,14
99.7186,9
99.727,10
99.7353,15
99.7437,9
99.752,10
99.7604,13
99.7688,9
99.7771,15
99.7855,14
99.7938,7
99.8022,7
99.8105,15
99.8189,3
99.8272,10
99.8356,7
99.844,14
99.8523,5
99.8607,14
99.869,21
99.8774,13
99.8857,9
99.8941,8
99.9024,16
99.9108,10
99.9192,8
99.9275,9
99.9359,11
99.9442,13
99.9526,10
99.9609,14
99.9693,16
99.9776,9
99.986,15
99.9944,14
100.003,7
100.011,10
100.019,16
100.028,8
100.036,8
100.044,18
100.053,8
100.061,8
100.07,11
100.078,9
100.086,9
100.095,11
100.103,8
100.111,10
100.12,7
100.128,21
100.136,10
100.145,8
100.153,7
100.161,8
100.17,14
100.178,9
100.187,7
100.195,15
100.203,8
100.212,11
100.22,13
100.228,17
100.237,11
100.245,10
100.253,13
100.262,11
100.27,16
100.278,9
100.287,9
100.295,16
100.304,10
100.312,4
100.32,9
100.329,13
100.337,5
100.345,9
100.354,8
100.362,9
100.37,14
100.379,15
100.387,13
100.395,11
100.404,8
100.412,9
100.42,13
100.429,13
100.437,13
100.446,8
100.454,15
100.462,11
100.471,11
100.479,15
100.487,11
100.496,13
100.504,10
100.512,10
100.521,9
100.529,8
100.537,10
100.546,11
100.554,7
100.563,14
100.571,10
100.579,13
100.588,8
100.596,10
100.604,11
100.613,4
100.621,10
100.629,15
100.638,10
100.646,11
100.654,16
100.663,9
100.671,7
100.68,5
100.688,7
100.696,14
100.705,10
100.713,13
100.721,4
100.73,16
100.738,5
100.746,8
100.755,11
100.763,15
100.771,10
100.78,15
100.788,8
100.797,14
100.805,7
100.813,13
100.822,16
100.83,9
100.838,13
100.847,10
100.855,10
100.863,8
100.872,16
100.88,11
100.888,8
100.897,11
100.905,10
100.913,13
100.922,11
100.93,8
100.939,7
100.947,16
100.955,8
100.964,7
100.972,4
100.98,4
100.989,13
100.997,17
101.005,15
101.014,16
101.022,5
101.03,10
101.039,11
101.047,10
101.056,17
101.064,18
101.072,18
101.081,7
101.089,8
101.097,9
101.106,14
101.114,11
101.122,3
101.131,8
101.139,5
101.147,14
101.156,13
101.164,8
101.173,7
101.181,10
101.189,9
101.198,20
101.206,9
101.214,5
101.223,10
101.231,11
101.239,8
101.248,11
101.256,8
101.264,9
101.273,15
101.281,9
101.289,11
101.298,16
101.306,9
101.315,13
101.323,8
101.331,10
101.34,11
101.348,10
101.356,13
101.365,14
101.373,10
101.381,4
101.39,14
101.398,11
101.406,4
101.415,2
101.423,5
101.432,4
101.44,8
101.448,15
101.457,8
101.465,16
101.473,7
101.482,5
101.49,9
101.498,7
101.507,14
101.515,10
101.523,5
101.532,8
101.54,7
101.549,8
101.557,16
101.565,11
101.574,14
101.582,8
101.59,11
101.599,3
101.607,13
101.615,8
101.624,5
101.632,4
101.64,8
101.649,11
101.657,8
101.665,8
101.674,10
101.682,10
101.691,11
101.699,15
101.707,7
101.716,8
101.724,14
101.732,10
101.741,7
101.749,13
101.757,15
101.766,8
101.774,9
101.782,13
101.791,14
101.799,8
101.808,7
101.816,10
101.824,14
101.833,9
101.841,13
101.849,14
101.858,14
101.866,13
101.874,3
101.883,17
101.891,13
101.899,8
101.908,5
101.916,9
101.925,14
101.933,10
101.941,8
101.95,7
101.958,8
101.966,5
101.975,5
101.983,16
101.991,5
102,13
102.008,2
102.016,5
102.025,10
102.033,13
102.041,14
102.05,11
102.058,16
102.067,10
102.075,13
102.083,10
102.092,4
102.1,11
102.108,9
102.117,9
102.125,16
102.133,9
102.142,7
102.15,13
102.158,8
102.167,13
102.175,14
102.184,4
102.192,20
102.2,11
102.209,14
102.217,9
102.225,16
102.234,13
102.242,14
102.25,14
102.259,8
102.267,10
102.275,16
102.284,16
102.292,10
102.301,14
102.309,11
102.317,14
102.326,13
102.334,16
102.342,7
102.351,10
102.359,14
102.367,14
102.376,8
102.384,8
102.392,14
102.401,11
102.409,14
102.417,20
102.426,22
102.434,9
102.443,13
102.451,15
102.459,15
102.468,17
102.476,16
102.484,10
102.493,11
102.501,11
102.509,5
102.518,18
102.526,10
102.534,16
102.543,15
102.551,14
102.56,16
102.568,22
102.576,20
102.585,18
102.593,14
102.601,15
102.61,14
102.618,10
102.626,10
102.635,10
102.643,22
102.651,9
102.66,16
102.668,29
102.677,15
102.685,10
102.693,16
102.702,16
102.71,17
102.718,17
102.727,13
102.735,15
102.743,15
102.752,14
102.76,14
102.768,8
102.777,10
102.785,13
102.793,7
102.802,11
102.81,11
102.819,14
102.827,13
102.835,10
102.844,9
102.852,11
102.86,10
102.869,10
102.877,15
102.885,16
102.894,13
102.902,14
102.91,15
102.919,10
102.927,16
102.936,10
102.944,10
102.952,17
102.961,8
102.969,11
102.977,14
102.986,15
102.994,16
103.002,21
103.011,17
103.019,14
103.027,14
103.036,22
103.044,11
103.053,16
103.061,23
103.069,8
103.078,15
103.086,11
103.094,9
103.103,9
103.111,11
103.119,17
103.128,16
103.136,13
103.144,8
103.153,11
103.161,17
103.17,4
103.178,14
103.186,13
103.195,9
103.203,8
103.211,15
103.22,10
103.228,13
103.236,14
103.245,8
103.253,10
103.261,8
103.27,7
103.278,14
103.286,4
103.295,9
103.303,23
103.312,14
103.32,16
103.328,10
103.337,11
103.345,9
103.353,13
103.362,9
103.37,10
103.378,11
103.387,16
103.395,13
103.403,13
103.412,5
103.42,8
103.429,4
103.437,8
103.445,7
103.454,10
103.462,13
103.47,10
103.479,9
103.487,10
103.495,9
103.504,8
103.512,10
103.52,14
103.529,9
103.537,10
103.546,9
103.554,15
103.562,13
103.571,9
103.579,14
103.587,15
103.596,11
103.604,11
103.612,13
103.621,17
103.629,5
103.637,9
103.646,14
103.654,16
103.662,10
103.671,4
103.679,8
103.688,17
103.696,8
103.704,20
103.713,10
103.721,7
103.729,5
103.738,7
103.746,10
103.754,11
103.763,11
103.771,15
103.779,14
103.788,14
103.796,5
103.805,9
103.813,7
103.821,7
103.83,15
103.838,5
103.846,8
103.855,9
103.863,9
103.871,13
103.88,9
103.888,7
103.896,9
103.905,7
103.913,14
103.922,9
103.93,8
103.938,15
103.947,21
103.955,14
103.963,8
103.972,18
103.98,13
103.988,22
103.997,13
104.005,1
104.013,14
104.022,7
104.03,17
104.038,11
104.047,15
104.055,15
104.064,15
104.072,9
104.08,15
104.089,5
104.097,9
104.105,15
104.114,21
104.122,8
104.13,9
104.139,8
104.147,13
104.155,3
104.164,15
104.172,18
104.181,17
104.189,10
104.197,10
104.206,14
104.214,13
104.222,8
104.231,11
104.239,11
104.247,15
104.256,9
104.264,5
104.272,15
104.281,14
104.289,9
104.298,7
104.306,11
104.314,11
104.323,14
104.331,10
104.339,14
104.348,10
104.356,14
104.364,13
104.373,10
104.381,11
104.389,13
104.398,8
104.406,11
104.414,11
104.423,8
104.431,9
104.44,9
104.448,10
104.456,14
104.465,14
104.473,3
104.481,8
104.49,17
104.498,13
104.506,10
104.515,16
104.523,8
104.531,7
104.54,9
104.548,11
104.557,7
104.565,11
104.573,9
104.582,13
104.59,9
104.598,11
104.607,9
104.615,15
104.623,13
104.632,9
104.64,15
104.648,17
104.657,8
104.665,7
104.674,8
104.682,15
104.69,10
104.699,13
104.707,15
104.715,16
104.724,14
104.732,7
104.74,13
104.749,9
104.757,15
104.765,13
104.774,8
104.782,14
104.79,13
104.799,8
104.807,10
104.816,16
104.824,5
104.832,13
104.841,17
104.849,10
104.857,18
104.866,15
104.874,10
104.882,8
104.891,9
104.899,8
104.907,15
104.916,10
104.924,9
104.933,10
104.941,13
104.949,8
104.958,14
104.966,9
104.974,20
104.983,10
104.991,13
104.999,4
105.008,11
105.016,20
105.024,10
105.033,7
105.041,10
105.05,15
105.058,18
105.066,11
105.075,16
105.083,13
105.091,5
105.1,11
105.108,5
105.116,11
105.125,4
105.133,15
105.141,9
105.15,13
105.158,9
105.166,11
105.175,13
105.183,8
105.192,7
105.2,13
105.208,11
105.217,11
105.225,8
105.233,13
105.242,8
105.25,13
105.258,10
105.267,10
105.275,18
105.283,9
105.292,8
105.3,8
105.309,24
105.317,7
105.325,4
105.334,14
105.342,13
105.35,7
105.359,10
105.367,18
105.375,13
105.384,9
105.392,2
105.4,10
105.409,15
105.417,7
105.426,13
105.434,13
105.442,7
105.451,13
105.459,8
105.467,14
105.476,10
105.484,7
105.492,9
105.501,5
105.509,18
105.517,7
105.526,5
105.534,10
105.543,11
105.551,9
105.559,8
105.568,10
105.576,13
105.584,14
105.593,7
105.601,14
105.609,8
105.618,17
105.626,5
105.634,13
105.643,7
105.651,10
105.659,4
105.668,11
105.676,11
105.685,9
105.693,9
105.701,9
105.71,5
105.718,9
105.726,11
105.735,18
105.743,9
105.751,3
105.76,9
105.768,10
105.776,14
105.785,13
105.793,10
105.802,7
105.81,10
105.818,3
105.827,15
105.835,11
105.843,16
105.852,10
105.86,9
105.868,5
105.877,4
105.885,11
105.893,11
105.902,11
105.91,5
105.919,14
105.927,9
105.935,10
105.944,11
105.952,7
105.96,14
105.969,15
105.977,8
105.985,10
105.994,15
106.002,14
106.01,17
106.019,3
106.027,15
106.035,11
106.044,14
106.052,11
106.061,10
106.069,9
106.077,10
106.086,13
106.094,14
106.102,13
106.111,11
106.119,7
106.127,10
106.136,13
106.144,9
106.152,11
106.161,14
106.169,15
106.178,9
106.186,11
106.194,14
106.203,11
106.211,10
106.219,13
106.228,13
106.236,18
106.244,11
106.253,5
106.261,11
106.269,16
106.278,7
106.286,15
106.295,15
106.303,17
106.311,13
106.32,17
106.328,21
106.336,11
106.345,16
106.353,16
106.361,11
106.37,10
106.378,11
106.386,8
106.395,9
106.403,14
106.411,18
106.42,15
106.428,15
106.437,10
106.445,15
106.453,13
106.462,16
106.47,10
106.478,16
106.487,18
106.495,13
106.503,5
106.512,14
106.52,10
106.528,11
106.537,17
106.545,15
106.554,14
106.562,13
106.57,11
106.579,16
106.587,16
106.595,13
106.604,13
106.612,13
106.62,15
106.629,14
106.637,7
106.645,11
106.654,5
106.662,8
106.671,16
106.679,9
106.687,15
106.696,9
106.704,9
106.712,1
106.721,10
106.729,15
106.737,5
106.746,10
106.754,4
106.762,13
106.771,14
106.779,8
106.787,23
106.796,11
106.804,20
106.813,13
106.821,14
106.829,9
106.838,21
106.846,16
106.854,14
106.863,11
106.871,10
106.879,8
106.888,13
106.896,17
106.904,13
106.913,13
106.921,9
106.93,14
106.938,10
106.946,15
106.955,13
106.963,15
106.971,5
106.98,5
106.988,21
106.996,8
107.005,5
107.013,9
107.021,9
107.03,15
107.038,8
107.047,14
107.055,15
107.063,14
107.072,11
107.08,15
107.088,13
107.097,8
107.105,16
107.113,8
107.122,11
107.13,5
107.138,4
107.147,16
107.155,14
107.163,9
107.172,7
107.18,9
107.189,9
107.197,15
107.205,8
107.214,11
107.222,8
107.23,7
107.239,7
107.247,16
107.255,11
107.264,7
107.272,13
107.28,8
107.289,10
107.297,9
107.306,14
107.314,10
107.322,9
107.331,8
107.339,13
107.347,10
107.356,16
107.364,15
107.372,14
107.381,5
107.389,10
107.397,7
107.406,10
107.414,10
107.423,11
107.431,14
107.439,13
107.448,3
107.456,5
107.464,8
107.473,10
107.481,9
107.489,15
107.498,5
107.506,11
107.514,21
107.523,13
107.531,9
107.539,11
107.548,13
107.556,13
107.565,9
107.573,3
107.581,11
107.59,8
107.598,7
107.606,15
107.615,10
107.623,13
107.631,9
107.64,10
107.648,13
107.656,15
107.665,11
107.673,7
107.682,14
107.69,17
107.698,11
107.707,10
107.715,8
107.723,10
107.732,13
107.74,15
107.748,8
107.757,11
107.765,11
107.773,14
107.782,7
107.79,4
107.799,13
107.807,7
107.815,9
107.824,10
107.832,13
107.84,15
107.849,7
107.857,14
107.865,8
107.874,8
107.882,10
107.89,8
107.899,10
107.907,4
107.916,11
107.924,9
107.932,15
107.941,10
107.949,9
107.957,2
107.966,13
107.974,11
107.982,13
107.991,13
107.999,16
108.007,10
108.016,10
108.024,11
108.032,16
108.041,13
108.049,9
108.058,14
108.066,16
108.074,11
108.083,7
108.091,10
108.099,16
108.108,10
108.116,9
108.124,14
108.133,7
108.141,13
108.149,11
108.158,8
108.166,14
108.175,13
108.183,3
108.191,9
108.2,16
108.208,9
108.216,10
108.225,14
108.233,15
108.241,14
108.25,17
108.258,8
108.266,11
108.275,16
108.283,11
108.292,9
108.3,4
108.308,9
108.317,13
108.325,7
108.333,5
108.342,4
108.35,13
108.358,14
108.367,14
108.375,9
108.383,10
108.392,13
108.4,4
108.408,16
108.417,13
108.425,7
108.434,14
108.442,9
108.45,7
108.459,13
108.467,10
108.475,15
108.484,10
108.492,9
108.5,15
108.509,16
108.517,7
108.525,16
108.534,11
108.542,13
108.551,9
108.559,10
108.567,9
108.576,17
108.584,10
108.592,10
108.601,9
108.609,14
108.617,14
108.626,11
108.634,9
108.642,8
108.651,8
108.659,4
108.668,8
108.676,11
108.684,13
108.693,10
108.701,13
108.709,8
108.718,11
108.726,9
108.734,17
108.743,13
108.751,16
108.759,8
108.768,9
108.776,5
108.784,14
108.793,10
108.801,11
108.81,13
108.818,14
108.826,13
108.835,9
108.843,9
108.851,10
108.86,8
108.868,11
108.876,1
108.885,11
108.893,7
108.901,11
108.91,15
108.918,13
108.927,14
108.935,16
108.943,9
108.952,14
108.96,9
108.968,15
108.977,16
108.985,10
108.993,10
109.002,13
109.01,15
109.018,14
109.027,10
109.035,14
109.044,8
109.052,14
109.06,15
109.069,3
109.077,13
109.085,7
109.094,15
109.102,10
109.11,15
109.119,8
109.127,15
109.135,11
109.144,13
109.152,14
109.16,10
109.169,14
109.177,17
109.186,20
109.194,15
109.202,9
109.211,10
109.219,15
109.227,11
109.236,20
109.244,11
109.252,10
109.261,17
109.269,22
109.277,13
109.286,8
109.294,5
109.303,20
109.311,16
109.319,13
109.328,11
109.336,17
109.344,13
109.353,10
109.361,14
109.369,17
109.378,21
109.386,15
109.394,11
109.403,21
109.411,18
109.42,10
109.428,16
109.436,15
109.445,15
109.453,21
109.461,24
109.47,16
109.478,9
109.486,15
109.495,15
109.503,15
109.511,23
109.52,20
109.528,16
109.536,23
109.545,13
109.553,27
109.562,33
109.57,15
109.578,22
109.587,30
109.595,27
109.603,23
109.612,14
109.62,22
109.628,24
109.637,28
109.645,26
109.653,37
109.662,22
109.67,30
109.679,21
109.687,28
109.695,28
109.704,21
109.712,15
109.72,27
109.729,27
109.737,17
109.745,22
109.754,24
109.762,27
109.77,24
109.779,22
109.787,23
109.796,20
109.804,20
109.812,11
109.821,16
109.829,22
109.837,28
109.846,21
109.854,18
109.862,26
109.871,21
109.879,17
109.887,14
109.896,16
109.904,16
109.912,18
109.921,22
109.929,16
109.938,22
109.946,17
109.954,18
109.963,18
109.971,13
109.979,20
109.988,17
109.996,14
110.004,18
110.013,22
110.021,9
110.029,14
110.038,15
110.046,18
110.055,16
110.063,18
110.071,17
110.08,16
110.088,20
110.096,14
110.105,11
110.113,14
110.121,22
110.13,16
110.138,18
110.146,24
110.155,17
110.163,13
110.172,15
110.18,13
110.188,9
110.197,15
110.205,11
110.213,17
110.222,13
110.23,20
110.238,8
110.247,31
110.255,13
110.263,21
110.272,9
110.28,15
110.289,15
110.297,13
110.305,14
110.314,4
110.322,5
110.33,10
110.339,15
110.347,8
110.355,14
110.364,10
110.372,13
110.38,10
110.389,13
110.397,13
110.405,8
110.414,15
110.422,7
110.431,5
110.439,11
110.447,16
110.456,13
110.464,8
110.472,11
110.481,10
110.489,10
110.497,10
110.506,9
110.514,7
110.522,10
110.531,14
110.539,9
110.548,13
110.556,15
110.564,5
110.573,10
110.581,16
110.589,15
110.598,16
110.606,9
110.614,7
110.623,10
110.631,7
110.639,9
110.648,13
110.656,9
110.665,13
110.673,16
110.681,4
110.69,17
110.698,18
110.706,13
110.715,9
110.723,8
110.731,14
110.74,9
110.748,5
110.756,10
110.765,9
110.773,10
110.781,7
110.79,8
110.798,14
110.807,11
110.815,4
110.823,11
110.832,16
110.84,9
110.848,10
110.857,5
110.865,13
110.873,18
110.882,9
110.89,15
110.898,8
110.907,14
110.915,16
110.924,11
110.932,7
110.94,14
110.949,9
110.957,13
110.965,7
110.974,13
110.982,11
110.99,9
110.999,13
111.007,11
111.015,8
111.024,13
111.032,15
111.041,7
111.049,11
111.057,16
111.066,8
111.074,8
111.082,7
111.091,9
111.099,5
111.107,7
111.116,10
111.124,13
111.132,8
111.141,14
111.149,14
111.157,8
111.166,8
111.174,8
111.183,5
111.191,11
111.199,13
111.208,9
111.216,8
111.224,8
111.233,14
111.241,7
111.249,14
111.258,14
111.266,9
111.274,8
111.283,13
111.291,9
111.3,10
111.308,10
111.316,14
111.325,15
111.333,14
111.341,15
111.35,16
111.358,16
111.366,7
111.375,16
111.383,11
111.391,3
111.4,7
111.408,9
111.417,16
111.425,18
111.433,15
111.442,7
111.45,5
111.458,11
111.467,8
111.475,16
111.483,16
111.492,10
111.5,16
111.508,10
111.517,13
111.525,7
111.533,14
111.542,13
111.55,13
111.559,15
111.567,10
111.575,8
111.584,9
111.592,16
111.6,14
111.609,13
111.617,17
111.625,7
111.634,11
111.642,3
111.65,15
111.659,7
111.667,14
111.676,10
111.684,9
111.692,8
111.701,7
111.709,16
111.717,20
111.726,11
111.734,14
111.742,20
111.751,13
111.759,9
111.767,17
111.776,10
111.784,15
111.793,11
111.801,8
111.809,5
111.818,4
111.826,13
111.834,8
111.843,10
111.851,14
111.859,7
111.868,8
111.876,11
111.884,9
111.893,13
111.901,13
111.909,8
111.918,7
111.926,13
111.935,8
111.943,10
111.951,15
111.96,8
111.968,16
111.976,15
111.985,11
111.993,11
112.001,11
112.01,14
112.018,13
112.026,13
112.035,5
112.043,15
112.052,16
112.06,18
112.068,11
112.077,11
112.085,8
112.093,15
112.102,14
112.11,15
112.118,4
112.127,8
112.135,13
112.143,11
112.152,10
112.16,7
112.169,8
112.177,17
112.185,10
112.194,4
112.202,11
112.21,15
112.219,10
112.227,7
112.235,11
112.244,9
112.252,11
112.26,11
112.269,13
112.277,14
112.285,13
112.294,14
112.302,9
112.311,7
112.319,20
112.327,14
112.336,13
112.344,13
112.352,8
112.361,8
112.369,11
112.377,15
112.386,8
112.394,15
112.402,8
112.411,10
112.419,3
112.428,8
112.436,9
112.444,13
112.453,16
112.461,15
112.469,18
112.478,17
112.486,8
112.494,17
112.503,15
112.511,17
112.519,10
112.528,11
112.536,9
112.545,20
112.553,8
112.561,10
112.57,10
112.578,11
112.586,3
112.595,9
112.603,10
112.611,5
112.62,13
112.628,9
112.636,10
112.645,10
112.653,11
112.662,15
112.67,8
112.678,14
112.687,8
112.695,10
112.703,17
112.712,10
112.72,13
112.728,9
112.737,17
112.745,11
112.753,8
112.762,18
112.77,11
112.778,5
112.787,9
112.795,10
112.804,16
112.812,9
112.82,8
112.829,16
112.837,7
112.845,13
112.854,9
112.862,10
112.87,18
112.879,17
112.887,10
112.895,2
112.904,5
112.912,16
112.921,7
112.929,11
112.937,9
112.946,11
112.954,10
112.962,5
112.971,13
112.979,14
112.987,11
112.996,16
113.004,10
113.012,14
113.021,8
113.029,14
113.038,10
113.046,10
113.054,17
113.063,8
113.071,7
113.079,2
113.088,7
113.096,17
113.104,2
113.113,21
113.121,14
113.129,7
113.138,9
113.146,11
113.154,11
113.163,11
113.171,7
113.18,10
113.188,13
113.196,11
113.205,8
113.213,11
113.221,5
113.23,13
113.238,5
113.246,5
113.255,10
113.263,7
113.271,9
113.28,8
113.288,5
113.297,5
113.305,11
113.313,13
113.322,8
113.33,16
113.338,15
113.347,17
113.355,15
113.363,18
113.372,15
113.38,5
113.388,10
113.397,9
113.405,9
113.414,10
113.422,14
113.43,2
113.439,18
113.447,16
113.455,7
113.464,7
113.472,8
113.48,5
113.489,13
113.497,14
113.505,9
113.514,7
113.522,11
113.53,8
113.539,14
113.547,17
113.556,3
113.564,3
113.572,7
113.581,13
113.589,10
113.597,17
113.606,3
113.614,16
113.622,13
113.631,20
113.639,13
113.647,9
113.656,15
113.664,9
113.673,10
113.681,9
113.689,7
113.698,8
113.706,14
113.714,16
113.723,17
113.731,11
113.739,9
113.748,13
113.756,9
113.764,16
113.773,14
113.781,8
113.79,11
113.798,10
113.806,17
113.815,10
113.823,7
113.831,18
113.84,17
113.848,10
113.856,9
113.865,15
113.873,17
113.881,8
113.89,15
113.898,13
113.906,9
113.915,11
113.923,8
113.932,17
113.94,13
113.948,14
113.957,11
113.965,10
113.973,9
113.982,14
113.99,15
113.998,14
114.007,20
114.015,17
114.023,16
114.032,13
114.04,14
114.049,8
114.057,14
114.065,21
114.074,18
114.082,18
114.09,14
114.099,14
114.107,18
114.115,13
114.124,13
114.132,13
114.14,11
114.149,16
114.157,10
114.166,15
114.174,13
114.182,10
114.191,14
114.199,13
114.207,7
114.216,14
114.224,15
114.232,15
114.241,16
114.249,14
114.257,17
114.266,14
114.274,18
114.282,16
114.291,15
114.299,9
114.308,20
114.316,21
114.324,22
114.333,17
114.341,21
114.349,10
114.358,20
114.366,15
114.374,31
114.383,20
114.391,21
114.399,21
114.408,26
114.416,16
114.425,22
114.433,24
114.441,26
114.45,23
114.458,14
114.466,36
114.475,28
114.483,26
114.491,23
114.5,21
114.508,30
114.516,23
114.525,21
114.533,22
114.542,26
114.55,15
114.558,20
114.567,22
114.575,21
114.583,26
114.592,20
114.6,20
114.608,22
114.617,24
114.625,20
114.633,26
114.642,11
114.65,17
114.658,17
114.667,21
114.675,15
114.684,14
114.692,10
114.7,13
114.709,10
114.717,13
114.725,17
114.734,15
114.742,15
114.75,13
114.759,8
114.767,17
114.775,14
114.784,14
114.792,11
114.801,9
114.809,11
114.817,9
114.826,17
114.834,10
114.842,14
114.851,18
114.859,16
114.867,17
114.876,20
114.884,18
114.892,20
114.901,13
114.909,23
114.918,24
114.926,21
114.934,24
114.943,29
114.951,26
114.959,21
114.968,18
114.976,15
114.984,18
114.993,17
115.001,23
115.009,21
115.018,16
115.026,15
115.035,16
115.043,21
115.051,17
115.06,10
115.068,11
115.076,9
115.085,20
115.093,15
115.101,10
115.11,8
115.118,15
115.126,15
115.135,14
115.143,10
115.151,15
115.16,15
115.168,13
115.177,5
115.185,7
115.193,5
115.202,11
115.21,11
115.218,9
115.227,14
115.235,15
115.243,13
115.252,8
115.26,10
115.268,10
115.277,8
115.285,7
115.294,13
115.302,9
115.31,8
115.319,7
115.327,10
115.335,9
115.344,13
115.352,13
115.36,14
115.369,18
115.377,11
115.385,14
115.394,7
115.402,7
115.411,14
115.419,15
115.427,9
115.436,13
115.444,10
115.452,13
115.461,11
115.469,10
115.477,8
115.486,13
115.494,11
115.502,9
115.511,11
115.519,10
115.527,8
115.536,13
115.544,8
115.553,7
115.561,10
115.569,11
115.578,15
115.586,21
115.594,9
115.603,13
115.611,9
115.619,10
115.628,11
115.636,10
115.644,15
115.653,7
115.661,14
115.67,16
115.678,18
115.686,16
115.695,7
115.703,18
115.711,9
115.72,4
115.728,15
115.736,9
115.745,15
115.753,10
115.761,11
115.77,9
115.778,8
115.787,11
115.795,9
115.803,14
115.812,4
115.82,14
115.828,14
115.837,10
115.845,14
115.853,10
115.862,10
115.87,10
115.878,15
115.887,13
115.895,11
115.903,8
115.912,14
115.92,11
115.929,10
115.937,10
115.945,13
115.954,7
115.962,20
115.97,8
115.979,17
115.987,8
115.995,13
116.004,10
116.012,9
116.02,9
116.029,11
116.037,16
116.046,9
116.054,8
116.062,10
116.071,14
116.079,13
116.087,14
116.096,15
116.104,7
116.112,11
116.121,21
116.129,8
116.137,10
116.146,16
116.154,13
116.163,11
116.171,11
116.179,16
116.188,11
116.196,9
116.204,16
116.213,18
116.221,8
116.229,8
116.238,10
116.246,9
116.254,13
116.263,14
116.271,11
116.279,15
116.288,5
116.296,5
116.305,10
116.313,10
116.321,15
116.33,14
116.338,10
116.346,14
116.355,20
116.363,10
116.371,9
116.38,10
116.388,16
116.396,10
116.405,8
116.413,13
116.422,11
116.43,14
116.438,18
116.447,17
116.455,7
116.463,15
116.472,8
116.48,8
116.488,9
116.497,14
116.505,9
116.513,20
116.522,14
116.53,13
116.539,16
116.547,11
116.555,8
116.564,14
116.572,13
116.58,15
116.589,15
116.597,16
116.605,7
116.614,13
116.622,16
116.63,9
116.639,8
116.647,4
116.655,11
116.664,8
116.672,14
116.681,11
116.689,16
116.697,5
116.706,15
116.714,4
116.722,8
116.731,10
116.739,15
116.747,10
116.756,18
116.764,8
116.772,5
116.781,8
116.789,10
116.798,8
116.806,15
116.814,10
116.823,13
116.831,11
116.839,5
116.848,11
116.856,7
116.864,8
116.873,14
116.881,5
116.889,14
116.898,9
116.906,11
116.915,17
116.923,7
116.931,9
116.94,8
116.948,10
116.956,7
116.965,8
116.973,9
116.981,10
116.99,24
116.998,14
117.006,11
117.015,15
117.023,5
117.031,7
117.04,9
117.048,13
117.057,5
117.065,5
117.073,21
117.082,8
117.09,15
117.098,15
117.107,5
117.115,14
117.123,13
117.132,10
117.14,7
117.148,23
117.157,10
117.165,11
117.174,5
117.182,10
117.19,8
117.199,10
117.207,10
117.215,13
117.224,10
117.232,14
117.24,14
117.249,16
117.257,13
117.265,7
117.274,13
117.282,14
117.291,10
117.299,11
117.307,11
117.316,14
117.324,13
117.332,4
117.341,17
117.349,11
117.357,8
117.366,11
117.374,14
117.382,9
117.391,20
117.399,8
117.408,14
117.416,9
117.424,8
117.433,8
117.441,9
117.449,9
117.458,9
117.466,11
117.474,4
117.483,9
117.491,13
117.499,13
117.508,11
117.516,14
117.524,9
117.533,7
117.541,17
117.55,10
117.558,11
117.566,7
117.575,2
117.583,9
117.591,7
117.6,8
117.608,9
117.616,5
117.625,16
117.633,20
117.641,11
117.65,7
117.658,13
117.667,8
117.675,9
117.683,16
117.692,10
117.7,16
117.708,8
117.717,10
117.725,14
117.733,4
117.742,4
117.75,11
117.758,20
117.767,15
117.775,16
117.784,7
117.792,16
117.8,13
117.809,18
117.817,18
117.825,10
117.834,17
117.842,15
117.85,11
117.859,5
117.867,7
117.875,17
117.884,9
117.892,15
117.9,13
117.909,9
117.917,15
117.926,14
117.934,9
117.942,8
117.951,16
117.959,20
117.967,8
117.976,13
117.984,9
117.992,15
118.001,9
118.009,13
118.017,9
118.026,13
118.034,10
118.043,10
118.051,14
118.059,17
118.068,9
118.076,11
118.084,21
118.093,13
118.101,15
118.109,21
118.118,9
118.126,17
118.134,11
118.143,9
118.151,11
118.16,5
118.168,10
118.176,8
118.185,17
118.193,10
118.201,10
118.21,11
118.218,10
118.226,13
118.235,15
118.243,20
118.251,9
118.26,14
118.268,9
118.276,15
118.285,13
118.293,17
118.302,21
118.31,11
118.318,4
118.327,17
118.335,20
118.343,11
118.352,9
118.36,14
118.368,15
118.377,11
118.385,16
118.393,14
118.402,16
118.41,13
118.419,11
118.427,7
118.435,13
118.444,8
118.452,15
118.46,17
118.469,9
118.477,8
118.485,18
118.494,17
118.502,5
118.51,14
118.519,8
118.527,11
118.536,15
118.544,14
118.552,9
118.561,16
118.569,7
118.577,11
118.586,10
118.594,14
118.602,7
118.611,9
118.619,15
118.627,7
118.636,13
118.644,17
118.652,9
118.661,17
118.669,9
118.678,13
118.686,13
118.694,15
118.703,9
118.711,7
118.719,5
118.728,17
118.736,13
118.744,15
118.753,4
118.761,16
118.769,11
118.778,9
118.786,13
118.795,11
118.803,9
118.811,7
118.82,13
118.828,9
118.836,10
118.845,15
118.853,17
118.861,14
118.87,9
118.878,21
118.886,15
118.895,13
118.903,11
118.912,9
118.92,10
118.928,13
118.937,8
118.945,15
118.953,9
118.962,7
118.97,22
118.978,22
118.987,14
118.995,13
119.003,15
119.012,8
119.02,5
119.028,13
119.037,14
119.045,11
119.054,10
119.062,13
119.07,9
119.079,9
119.087,8
119.095,10
119.104,9
119.112,17
119.12,11
119.129,13
119.137,10
119.145,9
119.154,13
119.162,10
119.171,21
119.179,18
119.187,14
119.196,11
119.204,10
119.212,15
119.221,9
119.229,13
119.237,9
119.246,13
119.254,13
119.262,10
119.271,10
119.279,7
119.288,15
119.296,13
119.304,13
119.313,11
119.321,18
119.329,18
119.338,13
119.346,14
119.354,14
119.363,10
119.371,7
119.379,13
119.388,16
119.396,9
119.405,16
119.413,15
119.421,13
119.43,11
119.438,10
119.446,11
119.455,13
119.463,11
119.471,16
119.48,7
119.488,5
119.496,5
119.505,10
119.513,11
119.521,9
119.53,10
119.538,15
119.547,14
119.555,10
119.563,11
119.572,11
119.58,16
119.588,22
119.597,14
119.605,16
119.613,14
119.622,18
119.63,8
119.638,23
119.647,28
119.655,11
119.664,16
119.672,9
119.68,11
119.689,13
119.697,22
119.705,16
119.714,18
119.722,17
119.73,16
119.739,16
119.747,23
119.755,15
119.764,16
119.772,18
119.781,8
119.789,16
119.797,18
119.806,13
119.814,21
119.822,7
119.831,11
119.839,14
119.847,14
119.856,22
119.864,27
119.872,10
119.881,18
119.889,20
119.897,20
119.906,18
119.914,13
119.923,14
119.931,15
119.939,10
119.948,16
119.956,9
119.964,13
119.973,16
119.981,22
119.989,23
119.998,17
120.006,13
120.014,15
120.023,14
120.031,13
120.04,22
120.048,21
120.056,13
120.065,17
120.073,11
120.081,9
120.09,20
120.098,14
120.106,11
120.115,14
120.123,20
120.131,15
120.14,23
120.148,1
120.157,18
120.165,14
120.173,20
120.182,8
120.19,18
120.198,11
120.207,16
120.215,13
120.223,16
120.232,10
120.24,17
120.248,21
120.257,7
120.265,18
120.273,16
120.282,15
120.29,8
120.299,14
120.307,11
120.315,17
120.324,15
120.332,11
120.34,8
120.349,17
120.357,14
120.365,14
120.374,17
120.382,17
120.39,10
120.399,15
120.407,16
120.416,24
120.424,13
120.432,10
120.441,8
120.449,13
120.457,17
120.466,11
120.474,10
120.482,7
120.491,23
120.499,9
120.507,11
120.516,9
120.524,15
120.533,14
120.541,20
120.549,15
120.558,7
120.566,14
120.574,14
120.583,13
120.591,10
120.599,13
120.608,16
120.616,16
120.624,18
120.633,9
120.641,17
120.649,11
120.658,9
120.666,9
120.675,16
120.683,10
120.691,7
120.7,7
120.708,11
120.716,18
120.725,11
120.733,14
120.741,10
120.75,11
120.758,10
120.766,16
120.775,8
120.783,13
120.792,14
120.8,7
120.808,14
120.817,16
120.825,11
120.833,11
120.842,16
120.85,16
120.858,17
120.867,7
120.875,8
120.883,8
120.892,10
120.9,9
120.909,11
120.917,9
120.925,16
120.934,11
120.942,10
120.95,8
120.959,11
120.967,16
120.975,10
120.984,14
120.992,8
121,16
121.009,13
121.017,9
121.025,13
121.034,15
121.042,7
121.051,13
121.059,10
121.067,9
121.076,11
121.084,14
121.092,11
121.101,18
121.109,11
121.117,7
121.126,16
121.134,9
121.142,7
121.151,11
121.159,14
121.168,10
121.176,11
121.184,11
121.193,31
121.201,17
121.209,9
121.218,9
121.226,5
121.234,14
121.243,11
121.251,11
121.259,16
121.268,9
121.276,11
121.285,9
121.293,11
121.301,14
121.31,9
121.318,15
121.326,4
121.335,9
121.343,14
121.351,11
121.36,17
121.368,8
121.376,9
121.385,10
121.393,14
121.401,10
121.41,15
121.418,7
121.427,14
121.435,9
121.443,14
121.452,10
121.46,14
121.468,9
121.477,14
121.485,13
121.493,15
121.502,8
121.51,26
121.518,14
121.527,15
121.535,15
121.544,8
121.552,4
121.56,11
121.569,13
121.577,16
121.585,10
121.594,14
121.602,10
121.61,9
121.619,3
121.627,18
121.635,14
121.644,18
121.652,11
121.661,11
121.669,10
121.677,13
121.686,10
121.694,17
121.702,20
121.711,9
121.719,15
121.727,14
121.736,21
121.744,14
121.752,8
121.761,10
121.769,15
121.778,16
121.786,15
121.794,14
121.803,7
121.811,9
121.819,13
121.828,10
121.836,10
121.844,10
121.853,8
121.861,15
121.869,10
121.878,15
121.886,16
121.894,15
121.903,11
121.911,9
121.92,14
121.928,24
121.936,18
121.945,26
121.953,23
121.961,21
121.97,13
121.978,16
121.986,14
121.995,16
122.003,23
122.011,27
122.02,22
122.028,26
122.037,22
122.045,15
122.053,24
122.062,24
122.07,18
122.078,14
122.087,33
122.095,22
122.103,39
122.112,21
122.12,39
122.128,28
122.137,22
122.145,28
122.154,28
122.162,35
122.17,35
122.179,33
122.187,30
122.195,34
122.204,48
122.212,36
122.22,45
122.229,52
122.237,47
122.245,47
122.254,43
122.262,45
122.27,48
122.279,37
122.287,37
122.296,48
122.304,45
122.312,66
122.321,60
122.329,36
122.337,52
122.346,50
122.354,40
122.362,43
122.371,49
122.379,43
122.387,27
122.396,36
122.404,41
122.413,31
122.421,33
122.429,29
122.438,31
122.446,27
122.454,26
122.463,18
122.471,29
122.479,31
122.488,27
122.496,24
122.504,20
122.513,28
122.521,23
122.53,20
122.538,20
122.546,18
122.555,7
122.563,26
122.571,21
122.58,17
122.588,23
122.596,14
122.605,11
122.613,14
122.621,24
122.63,31
122.638,21
122.646,17
122.655,31
122.663,24
122.672,29
122.68,31
122.688,23
122.697,23
122.705,33
122.713,22
122.722,24
122.73,39
122.738,24
122.747,20
122.755,24
122.763,28
122.772,22
122.78,39
122.789,33
122.797,27
122.805,29
122.814,31
122.822,41
122.83,27
122.839,24
122.847,31
122.855,28
122.864,17
122.872,28
122.88,35
122.889,36
122.897,22
122.906,18
122.914,24
122.922,31
122.931,30
122.939,17
122.947,16
122.956,16
122.964,22
122.972,13
122.981,18
122.989,20
122.997,23
123.006,14
123.014,18
123.022,14
123.031,14
123.039,17
123.048,16
123.056,27
123.064,16
123.073,22
123.081,16
123.089,16
123.098,15
123.106,11
123.114,14
123.123,17
123.131,11
123.139,14
123.148,9
123.156,11
123.165,20
123.173,17
123.181,17
123.19,13
123.198,9
123.206,14
123.215,7
123.223,15
123.231,13
123.24,16
123.248,20
123.256,10
123.265,20
123.273,5
123.282,11
123.29,16
123.298,11
123.307,13
123.315,10
123.323,10
123.332,15
123.34,7
123.348,20
123.357,14
123.365,9
123.373,5
123.382,20
123.39,5
123.398,22
123.407,10
123.415,11
123.424,15
123.432,15
123.44,13
123.449,13
123.457,20
123.465,9
123.474,9
123.482,14
123.49,7
123.499,15
123.507,14
123.515,9
123.524,18
123.532,16
123.541,17
123.549,23
123.557,13
123.566,15
123.574,9
123.582,21
123.591,10
123.599,15
123.607,22
123.616,17
123.624,15
123.632,17
123.641,21
123.649,14
123.658,14
123.666,11
123.674,14
123.683,10
123.691,11
123.699,13
123.708,17
123.716,10
123.724,14
123.733,3
123.741,10
123.749,15
123.758,11
123.766,14
123.774,14
123.783,13
123.791,8
123.8,5
123.808,11
123.816,9
123.825,14
123.833,10
123.841,10
123.85,11
123.858,20
123.866,13
123.875,9
123.883,8
123.891,11
123.9,13
123.908,7
123.917,13
123.925,15
123.933,9
123.942,11
123.95,8
123.958,13
123.967,10
123.975,10
123.983,5
123.992,17
124,10
124.008,18
124.017,16
124.025,10
124.034,9
124.042,18
124.05,17
124.059,18
124.067,10
124.075,17
124.084,18
124.092,13
124.1,13
124.109,11
124.117,5
124.125,11
124.134,14
124.142,8
124.151,4
124.159,10
124.167,5
124.176,13
124.184,10
124.192,15
124.201,11
124.209,14
124.217,14
124.226,9
124.234,10
124.242,13
124.251,7
124.259,9
124.267,15
124.276,14
124.284,14
124.293,11
124.301,9
124.309,8
124.318,16
124.326,8
124.334,13
124.343,9
124.351,10
124.359,11
124.368,11
124.376,8
124.384,14
124.393,11
124.401,11
124.41,11
124.418,7
124.426,14
124.435,10
124.443,10
124.451,17
124.46,13
124.468,11
124.476,11
124.485,10
124.493,10
124.501,24
124.51,11
124.518,15
124.527,10
124.535,14
124.543,17
124.552,9
124.56,13
124.568,13
124.577,20
124.585,13
124.593,8
124.602,16
124.61,7
124.618,14
124.627,8
124.635,7
124.643,16
124.652,13
124.66,7
124.669,11
124.677,8
124.685,13
124.694,16
124.702,20
124.71,13
124.719,16
124.727,11
124.735,10
124.744,13
124.752,11
124.76,11
124.769,15
124.777,5
124.786,10
124.794,10
124.802,16
124.811,11
124.819,13
124.827,14
124.836,11
124.844,14
124.852,20
124.861,14
124.869,20
124.877,17
124.886,8
124.894,13
124.903,9
124.911,17
124.919,18
124.928,11
124.936,10
124.944,14
124.953,9
124.961,8
124.969,13
124.978,14
124.986,8
124.994,7
125.003,11
125.011,16
125.019,17
125.028,15
125.036,13
125.045,11
125.053,8
125.061,11
125.07,15
125.078,14
125.086,3
125.095,8
125.103,10
125.111,16
125.12,8
125.128,15
125.136,9
125.145,15
125.153,13
125.162,14
125.17,13
125.178,18
125.187,10
125.195,16
125.203,9
125.212,5
125.22,11
125.228,21
125.237,17
125.245,15
125.253,13
125.262,15
125.27,13
125.279,10
125.287,15
125.295,14
125.304,8
125.312,20
125.32,21
125.329,20
125.337,14
125.345,13
125.354,16
125.362,16
125.37,7
125.379,20
125.387,10
125.395,5
125.404,18
125.412,11
125.421,9
125.429,16
125.437,9
125.446,13
125.454,10
125.462,13
125.471,15
125.479,9
125.487,15
125.496,15
125.504,16
125.512,14
125.521,20
125.529,11
125.538,15
125.546,5
125.554,9
125.563,16
125.571,5
125.579,9
125.588,9
125.596,13
125.604,9
125.613,11
125.621,14
125.629,10
125.638,9
125.646,8
125.655,13
125.663,11
125.671,21
125.68,17
125.688,10
125.696,15
125.705,10
125.713,9
125.721,8
125.73,14
125.738,5
125.746,15
125.755,13
125.763,10
125.771,14
125.78,11
125.788,13
125.797,16
125.805,18
125.813,11
125.822,13
125.83,13
125.838,21
125.847,10
125.855,13
125.863,13
125.872,11
125.88,15
125.888,13
125.897,11
125.905,9
125.914,16
125.922,15
125.93,8
125.939,11
125.947,11
125.955,14
125.964,5
125.972,15
125.98,20
125.989,14
125.997,7
126.005,20
126.014,7
126.022,8
126.031,16
126.039,17
126.047,10
126.056,18
126.064,10
126.072,16
126.081,16
126.089,14
126.097,8
126.106,8
126.114,7
126.122,22
126.131,18
126.139,10
126.147,17
126.156,10
126.164,20
126.173,5
126.181,13
126.189,15
126.198,16
126.206,13
126.214,18
126.223,14
126.231,15
126.239,11
126.248,14
126.256,14
126.264,17
126.273,16
126.281,16
126.29,15
126.298,11
126.306,17
126.315,20
126.323,17
126.331,17
126.34,14
126.348,20
126.356,15
126.365,16
126.373,13
126.381,10
126.39,21
126.398,18
126.407,21
126.415,16
126.423,9
126.432,9
126.44,15
126.448,18
126.457,11
126.465,16
126.473,14
126.482,21
126.49,5
126.498,18
126.507,11
126.515,9
126.524,15
126.532,13
126.54,15
126.549,21
126.557,21
126.565,22
126.574,22
126.582,13
126.59,17
126.599,26
126.607,18
126.615,13
126.624,8
126.632,18
126.64,15
126.649,11
126.657,16
126.666,13
126.674,24
126.682,17
126.691,22
126.699,13
126.707,15
126.716,15
126.724,13
126.732,22
126.741,29
126.749,18
126.757,18
126.766,14
126.774,9
126.783,24
126.791,24
126.799,20
126.808,21
126.816,13
126.824,28
126.833,11
126.841,14
126.849,20
126.858,17
126.866,17
126.874,14
126.883,20
126.891,22
126.9,11
126.908,10
126.916,13
126.925,9
126.933,23
126.941,14
126.95,20
126.958,11
126.966,23
126.975,8
126.983,17
126.991,11
127,8
127.008,13
127.016,9
127.025,26
127.033,15
127.042,18
127.05,14
127.058,18
127.067,18
127.075,8
127.083,17
127.092,18
127.1,16
127.108,18
127.117,13
127.125,13
127.133,22
127.142,10
127.15,20
127.159,9
127.167,9
127.175,13
127.184,13
127.192,16
127.2,8
127.209,17
127.217,15
127.225,15
127.234,10
127.242,20
127.25,9
127.259,21
127.267,13
127.276,11
127.284,16
127.292,16
127.301,13
127.309,11
127.317,14
127.326,10
127.334,14
127.342,16
127.351,14
127.359,21
127.367,21
127.376,17
127.384,20
127.392,18
127.401,11
127.409,13
127.418,22
127.426,21
127.434,16
127.443,20
127.451,16
127.459,16
127.468,11
127.476,11
127.484,9
127.493,11
127.501,7
127.509,13
127.518,8
127.526,17
127.535,11
127.543,9
127.551,13
127.56,24
127.568,9
127.576,17
127.585,13
127.593,5
127.601,8
127.61,16
127.618,11
127.626,17
127.635,11
127.643,17
127.652,18
127.66,11
127.668,10
127.677,8
127.685,10
127.693,18
127.702,7
127.71,11
127.718,11
127.727,14
127.735,14
127.743,11
127.752,8
127.76,15
127.768,9
127.777,13
127.785,8
127.794,14
127.802,5
127.81,13
127.819,14
127.827,9
127.835,11
127.844,7
127.852,20
127.86,8
127.869,13
127.877,13
127.885,7
127.894,15
127.902,14
127.911,18
127.919,10
127.927,18
127.936,11
127.944,17
127.952,14
127.961,13
127.969,21
127.977,14
127.986,18
127.994,9
128.002,13
128.011,13
128.019,16
128.028,16
128.036,14
128.044,7
128.053,15
128.061,7
128.069,14
128.078,11
128.086,15
128.094,11
128.103,14
128.111,9
128.119,14
128.128,5
128.136,16
128.144,14
128.153,10
128.161,11
128.17,13
128.178,8
128.186,1
128.195,13
128.203,17
128.211,9
128.22,13
128.228,10
128.236,15
128.245,8
128.253,11
128.261,10
128.27,13
128.278,20
128.287,9
128.295,13
128.303,10
128.312,10
128.32,14
128.328,10
128.337,13
128.345,9
128.353,14
128.362,9
128.37,15
128.378,7
128.387,9
128.395,10
128.404,15
128.412,8
128.42,8
128.429,5
128.437,14
128.445,11
128.454,10
128.462,14
128.47,15
128.479,5
128.487,14
128.495,8
128.504,8
128.512,17
128.52,17
128.529,15
128.537,13
128.546,21
128.554,7
128.562,8
128.571,11
128.579,17
128.587,15
128.596,13
128.604,4
128.612,11
128.621,13
128.629,20
128.637,9
128.646,14
128.654,7
128.663,14
128.671,24
128.679,10
128.688,11
128.696,7
128.704,13
128.713,10
128.721,13
128.729,18
128.738,10
128.746,11
128.754,13
128.763,11
128.771,9
128.78,13
128.788,10
128.796,11
128.805,16
128.813,8
128.821,16
128.83,10
128.838,15
128.846,7
128.855,8
128.863,5
128.871,14
128.88,11
128.888,13
128.897,11
128.905,16
128.913,5
128.922,24
128.93,8
128.938,10
128.947,10
128.955,13
128.963,14
128.972,11
128.98,14
128.988,10
128.997,13
129.005,11
129.013,11
129.022,11
129.03,11
129.039,14
129.047,15
129.055,7
129.064,10
129.072,13
129.08,16
129.089,11
129.097,13
129.105,11
129.114,7
129.122,9
129.13,17
129.139,13
129.147,21
129.156,13
129.164,15
129.172,15
129.181,10
129.189,13
129.197,13
129.206,13
129.214,15
129.222,18
129.231,10
129.239,14
129.247,11
129.256,16
129.264,7
129.273,16
129.281,8
129.289,16
129.298,13
129.306,11
129.314,9
129.323,9
129.331,17
129.339,14
129.348,11
129.356,18
129.364,14
129.373,11
129.381,18
129.389,9
129.398,8
129.406,17
129.415,21
129.423,8
129.431,10
129.44,4
129.448,11
129.456,14
129.465,14
129.473,15
129.481,13
129.49,16
129.498,10
129.506,16
129.515,11
129.523,21
129.532,15
129.54,20
129.548,15
129.557,11
129.565,15
129.573,3
129.582,4
129.59,16
129.598,11
129.607,17
129.615,15
129.623,16
129.632,16
129.64,8
129.649,14
129.657,8
129.665,13
129.674,11
129.682,13
129.69,17
129.699,15
129.707,9
129.715,9
129.724,14
129.732,15
129.74,10
129.749,16
129.757,21
129.765,16
129.774,15
129.782,16
129.791,18
129.799,11
129.807,17
129.816,10
129.824,24
129.832,15
129.841,13
129.849,18
129.857,9
129.866,18
129.874,9
129.882,17
129.891,10
129.899,7
129.908,13
129.916,10
129.924,17
129.933,10
129.941,23
129.949,15
129.958,16
129.966,20
129.974,15
129.983,23
129.991,14
129.999,17
130.008,14
130.016,16
130.025,11
130.033,8
130.041,18
130.05,14
130.058,13
130.066,14
130.075,14
130.083,13
130.091,10
130.1,20
130.108,21
130.116,16
130.125,15
130.133,16
130.141,24
130.15,18
130.158,16
130.167,23
130.175,18
130.183,16
130.192,15
130.2,23
130.208,17
130.217,17
130.225,13
130.233,17
130.242,16
130.25,16
130.258,21
130.267,17
130.275,14
130.284,17
130.292,22
130.3,20
130.309,22
130.317,14
130.325,33
130.334,16
130.342,21
130.35,13
130.359,18
130.367,22
130.375,18
130.384,27
130.392,22
130.401,22
130.409,27
130.417,20
130.426,10
130.434,23
130.442,20
130.451,18
130.459,16
130.467,15
130.476,24
130.484,26
130.492,14
130.501,20
130.509,16
130.517,16
130.526,18
130.534,14
130.543,20
130.551,17
130.559,15
130.568,22
130.576,17
130.584,15
130.593,16
130.601,9
130.609,18
130.618,20
130.626,14
130.634,20
130.643,5
130.651,13
130.66,17
130.668,20
130.676,18
130.685,13
130.693,11
130.701,18
130.71,27
130.718,23
130.726,16
130.735,15
130.743,13
130.751,17
130.76,7
130.768,11
130.777,13
130.785,16
130.793,7
130.802,11
130.81,18
130.818,13
130.827,9
130.835,11
130.843,18
130.852,20
130.86,15
130.868,7
130.877,7
130.885,10
130.893,18
130.902,10
130.91,27
130.919,13
130.927,13
130.935,23
130.944,16
130.952,16
130.96,14
130.969,13
130.977,14
130.985,13
130.994,7
131.002,8
131.01,20
131.019,11
131.027,14
131.036,16
131.044,15
131.052,15
131.061,11
131.069,8
131.077,18
131.086,15
131.094,20
131.102,17
131.111,18
131.119,13
131.127,13
131.136,24
131.144,18
131.153,20
131.161,16
131.169,10
131.178,18
131.186,20
131.194,16
131.203,18
131.211,16
131.219,7
131.228,11
131.236,21
131.244,18
131.253,16
131.261,18
131.27,10
131.278,14
131.286,9
131.295,20
131.303,11
131.311,18
131.32,10
131.328,18
131.336,9
131.345,9
131.353,11
131.361,14
131.37,11
131.378,10
131.386,15
131.395,18
131.403,11
131.412,17
131.42,11
131.428,13
131.437,18
131.445,13
131.453,7
131.462,8
131.47,18
131.478,7
131.487,4
131.495,11
131.503,9
131.512,18
131.52,8
131.529,14
131.537,14
131.545,17
131.554,10
131.562,10
131.57,9
131.579,11
131.587,13
131.595,10
131.604,11
131.612,15
131.62,13
131.629,10
131.637,14
131.646,13
131.654,8
131.662,17
131.671,15
131.679,11
131.687,7
131.696,14
131.704,8
131.712,10
131.721,17
131.729,11
131.737,7
131.746,11
131.754,14
131.762,15
131.771,13
131.779,16
131.788,18
131.796,5
131.804,14
131.813,11
131.821,13
131.829,13
131.838,13
131.846,8
131.854,14
131.863,8
131.871,9
131.879,13
131.888,7
131.896,8
131.905,7
131.913,14
131.921,16
131.93,10
131.938,11
131.946,10
131.955,8
131.963,10
131.971,13
131.98,10
131.988,10
131.996,11
132.005,10
132.013,10
132.022,15
132.03,13
132.038,10
132.047,9
132.055,7
132.063,15
132.072,14
132.08,7
132.088,10
132.097,10
132.105,8
132.113,9
132.122,8
132.13,14
132.138,13
132.147,14
132.155,17
132.164,13
132.172,10
132.18,11
132.189,20
132.197,10
132.205,9
132.214,14
132.222,9
132.23,10
132.239,15
132.247,8
132.255,10
132.264,13
132.272,10
132.281,14
132.289,13
132.297,11
132.306,10
132.314,14
132.322,13
132.331,8
132.339,11
132.347,14
132.356,15
132.364,13
132.372,14
132.381,11
132.389,20
132.398,13
132.406,8
132.414,16
132.423,13
132.431,11
132.439,11
132.448,11
132.456,8
132.464,14
132.473,11
132.481,17
132.489,7
132.498,8
132.506,14
132.514,9
132.523,7
132.531,13
132.54,8
132.548,13
132.556,8
132.565,17
132.573,11
132.581,8
132.59,10
132.598,13
132.606,9
132.615,13
132.623,10
132.631,15
132.64,10
132.648,9
132.657,11
132.665,9
132.673,14
132.682,17
132.69,8
132.698,11
132.707,13
132.715,17
132.723,7
132.732,8
132.74,10
132.748,9
132.757,14
132.765,15
132.774,11
132.782,8
132.79,21
132.799,14
132.807,13
132.815,13
132.824,9
132.832,13
132.84,13
132.849,11
132.857,10
132.865,5
132.874,13
132.882,7
132.89,10
132.899,21
132.907,15
132.916,11
132.924,13
132.932,9
132.941,9
132.949,11
132.957,11
132.966,9
132.974,10
132.982,17
132.991,15
132.999,13
133.007,13
133.016,10
133.024,18
133.033,9
133.041,9
133.049,8
133.058,13
133.066,15
133.074,16
133.083,10
133.091,18
133.099,15
133.108,9
133.116,8
133.124,7
133.133,14
133.141,14
133.15,15
133.158,10
133.166,21
133.175,4
133.183,14
133.191,16
133.2,13
133.208,8
133.216,11
133.225,8
133.233,14
133.241,11
133.25,17
133.258,13
133.266,10
133.275,17
133.283,11
133.292,10
133.3,9
133.308,10
133.317,13
133.325,11
133.333,13
133.342,13
133.35,13
133.358,14
133.367,15
133.375,17
133.383,3
133.392,10
133.4,8
133.409,11
133.417,7
133.425,7
133.434,16
133.442,11
133.45,7
133.459,8
133.467,17
133.475,14
133.484,7
133.492,15
133.5,8
133.509,5
133.517,15
133.526,8
133.534,15
133.542,14
133.551,18
133.559,14
133.567,13
133.576,9
133.584,17
133.592,16
133.601,10
133.609,18
133.617,17
133.626,18
133.634,15
133.643,13
133.651,18
133.659,9
133.668,13
133.676,11
133.684,14
133.693,10
133.701,15
133.709,15
133.718,4
133.726,14
133.734,11
133.743,9
133.751,15
133.759,15
133.768,16
133.776,13
133.785,8
133.793,10
133.801,9
133.81,15
133.818,27
133.826,16
133.835,16
133.843,14
133.851,11
133.86,17
133.868,14
133.876,11
133.885,9
133.893,15
133.902,22
133.91,7
133.918,10
133.927,14
133.935,13
133.943,9
133.952,16
133.96,23
133.968,10
133.977,10
133.985,15
133.993,5
134.002,5
134.01,10
134.019,11
134.027,16
134.035,13
134.044,13
134.052,10
134.06,10
134.069,11
134.077,15
134.085,14
134.094,16
134.102,20
134.11,16
134.119,7
134.127,17
134.135,14
134.144,13
134.152,18
134.161,16
134.169,9
134.177,9
134.186,13
134.194,13
134.202,10
134.211,10
134.219,14
134.227,14
134.236,13
134.244,15
134.252,4
134.261,10
134.269,9
134.278,16
134.286,9
134.294,15
134.303,15
134.311,9
134.319,17
134.328,11
134.336,13
134.344,10
134.353,8
134.361,11
134.369,13
134.378,10
134.386,21
134.395,11
134.403,11
134.411,9
134.42,15
134.428,13
134.436,11
134.445,16
134.453,13
134.461,23
134.47,14
134.478,10
134.486,15
134.495,14
134.503,10
134.511,11
134.52,13
134.528,8
134.537,9
134.545,15
134.553,7
134.562,13
134.57,26
134.578,14
134.587,10
134.595,18
134.603,18
134.612,13
134.62,11
134.628,13
134.637,7
134.645,13
134.654,10
134.662,10
134.67,14
134.679,14
134.687,9
134.695,15
134.704,5
134.712,16
134.72,10
134.729,8
134.737,17
134.745,7
134.754,15
134.762,13
134.771,15
134.779,9
134.787,16
134.796,13
134.804,10
134.812,13
134.821,11
134.829,9
134.837,10
134.846,7
134.854,9
134.862,9
134.871,9
134.879,9
134.887,9
134.896,14
134.904,11
134.913,10
134.921,9
134.929,10
134.938,13
134.946,15
134.954,10
134.963,9
134.971,13
134.979,9
134.988,13
134.996,9
135.004,18
135.013,5
135.021,13
135.03,13
135.038,11
135.046,17
135.055,18
135.063,11
135.071,22
135.08,14
135.088,18
135.096,13
135.105,15
135.113,9
135.121,16
135.13,13
135.138,3
135.147,15
135.155,14
135.163,11
135.172,5
135.18,22
135.188,23
135.197,13
135.205,16
135.213,22
135.222,17
135.23,4
135.238,14
135.247,16
135.255,14
135.263,13
135.272,11
135.28,5
135.289,13
135.297,5
135.305,8
135.314,8
135.322,15
135.33,10
135.339,20
135.347,8
135.355,10
135.364,11
135.372,7
135.38,9
135.389,14
135.397,13
135.406,15
135.414,16
135.422,8
135.431,9
135.439,16
135.447,24
135.456,8
135.464,5
135.472,10
135.481,13
135.489,14
135.497,7
135.506,14
135.514,11
135.523,13
135.531,13
135.539,13
135.548,9
135.556,9
135.564,13
135.573,15
135.581,13
135.589,13
135.598,9
135.606,9
135.614,22
135.623,10
135.631,16
135.639,14
135.648,20
135.656,18
135.665,17
135.673,16
135.681,9
135.69,20
135.698,8
135.706,14
135.715,14
135.723,11
135.731,11
135.74,13
135.748,9
135.756,14
135.765,10
135.773,10
135.782,14
135.79,9
135.798,13
135.807,9
135.815,15
135.823,17
135.832,17
135.84,8
135.848,11
135.857,9
135.865,7
135.873,15
135.882,16
135.89,10
135.899,9
135.907,16
135.915,8
135.924,8
135.932,8
135.94,14
135.949,11
135.957,10
135.965,11
135.974,9
135.982,13
135.99,13
135.999,10
136.007,11
136.016,9
136.024,10
136.032,13
136.041,17
136.049,14
136.057,15
136.066,13
136.074,15
136.082,13
136.091,10
136.099,11
136.107,14
136.116,5
136.124,9
136.132,18
136.141,13
136.149,10
136.158,10
136.166,16
136.174,9
136.183,9
136.191,14
136.199,9
136.208,5
136.216,14
136.224,17
136.233,15
136.241,13
136.249,14
136.258,13
136.266,14
136.275,14
136.283,10
136.291,9
136.3,18
136.308,14
136.316,14
136.325,9
136.333,18
136.341,21
136.35,16
136.358,11
136.366,10
136.375,14
136.383,16
136.392,16
136.4,11
136.408,13
136.417,9
136.425,11
136.433,20
136.442,21
136.45,7
136.458,9
136.467,9
136.475,7
136.483,5
136.492,14
136.5,13
136.508,10
136.517,7
136.525,11
136.534,9
136.542,11
136.55,17
136.559,14
136.567,8
136.575,11
136.584,14
136.592,13
136.6,13
136.609,7
136.617,9
136.625,17
136.634,14
136.642,21
136.651,17
136.659,9
136.667,13
136.676,10
136.684,11
136.692,14
136.701,18
136.709,15
136.717,10
136.726,7
136.734,11
136.742,15
136.751,17
136.759,11
136.768,11
136.776,20
136.784,16
136.793,14
136.801,17
136.809,4
136.818,14
136.826,16
136.834,9
136.843,14
136.851,5
136.859,18
136.868,15
136.876,11
136.884,18
136.893,11
136.901,21
136.91,14
136.918,11
136.926,16
136.935,14
136.943,18
136.951,9
136.96,13
136.968,15
136.976,8
136.985,14
136.993,13
137.001,13
137.01,10
137.018,20
137.027,17
137.035,13
137.043,14
137.052,22
137.06,11
137.068,16
137.077,14
137.085,21
137.093,13
137.102,15
137.11,13
137.118,24
137.127,15
137.135,13
137.144,13
137.152,11
137.16,13
137.169,9
137.177,13
137.185,14
137.194,9
137.202,17
137.21,13
137.219,14
137.227,8
137.235,14
137.244,15
137.252,17
137.26,14
137.269,15
137.277,10
137.286,23
137.294,7
137.302,10
137.311,20
137.319,23
137.327,10
137.336,21
137.344,15
137.352,11
137.361,16
137.369,10
137.377,10
137.386,13
137.394,16
137.403,13
137.411,10
137.419,8
137.428,9
137.436,14
137.444,10
137.453,14
137.461,13
137.469,9
137.478,22
137.486,15
137.494,3
137.503,5
137.511,11
137.52,10
137.528,14
137.536,14
137.545,11
137.553,9
137.561,15
137.57,16
137.578,4
137.586,15
137.595,18
137.603,8
137.611,15
137.62,8
137.628,20
137.636,15
137.645,9
137.653,16
137.662,15
137.67,8
137.678,14
137.687,10
137.695,15
137.703,18
137.712,13
137.72,14
137.728,21
137.737,7
137.745,14
137.753,17
137.762,13
137.77,9
137.779,16
137.787,10
137.795,14
137.804,11
137.812,17
137.82,10
137.829,14
137.837,9
137.845,13
137.854,9
137.862,4
137.87,16
137.879,7
137.887,13
137.896,9
137.904,8
137.912,16
137.921,20
137.929,15
137.937,8
137.946,10
137.954,10
137.962,16
137.971,17
137.979,11
137.987,17
137.996,9
138.004,20
138.012,8
138.021,13
138.029,9
138.038,14
138.046,14
138.054,18
138.063,13
138.071,13
138.079,14
138.088,17
138.096,22
138.104,10
138.113,13
138.121,10
138.129,15
138.138,14
138.146,15
138.155,11
138.163,18
138.171,14
138.18,11
138.188,13
138.196,15
138.205,7
138.213,10
138.221,16
138.23,17
138.238,14
138.246,15
138.255,23
138.263,15
138.272,20
138.28,16
138.288,2
138.297,16
138.305,17
138.313,7
138.322,8
138.33,9
138.338,17
138.347,9
138.355,7
138.363,15
138.372,10
138.38,18
138.389,21
138.397,16
138.405,10
138.414,11
138.422,13
138.43,10
138.439,17
138.447,14
138.455,11
138.464,17
138.472,17
138.48,9
138.489,11
138.497,13
138.505,14
138.514,17
138.522,14
138.531,10
138.539,10
138.547,9
138.556,17
138.564,10
138.572,10
138.581,15
138.589,14
138.597,15
138.606,13
138.614,21
138.622,14
138.631,13
138.639,11
138.648,13
138.656,17
138.664,10
138.673,7
138.681,15
138.689,14
138.698,11
138.706,14
138.714,15
138.723,13
138.731,21
138.739,13
138.748,15
138.756,8
138.765,14
138.773,15
138.781,13
138.79,16
138.798,8
138.806,18
138.815,10
138.823,16
138.831,15
138.84,20
138.848,15
138.856,8
138.865,16
138.873,10
138.881,15
138.89,13
138.898,15
138.907,15
138.915,15
138.923,13
138.932,15
138.94,14
138.948,21
138.957,16
138.965,22
138.973,10
138.982,17
138.99,8
138.998,17
139.007,21
139.015,16
139.024,9
139.032,17
139.04,10
139.049,13
139.057,15
139.065,18
139.074,14
139.082,21
139.09,17
139.099,18
139.107,16
139.115,17
139.124,16
139.132,14
139.141,18
139.149,8
139.157,14
139.166,13
139.174,20
139.182,16
139.191,17
139.199,10
139.207,16
139.216,15
139.224,20
139.232,9
139.241,15
139.249,17
139.257,13
139.266,14
139.274,8
139.283,16
139.291,10
139.299,15
139.308,22
139.316,17
139.324,26
139.333,23
139.341,8
139.349,5
139.358,10
139.366,11
139.374,29
139.383,16
139.391,17
139.4,24
139.408,18
139.416,17
139.425,17
139.433,16
139.441,17
139.45,14
139.458,16
139.466,20
139.475,24
139.483,11
139.491,22
139.5,18
139.508,21
139.517,10
139.525,13
139.533,16
139.542,28
139.55,13
139.558,27
139.567,17
139.575,16
139.583,33
139.592,21
139.6,23
139.608,22
139.617,15
139.625,28
139.633,37
139.642,20
139.65,20
139.659,22
139.667,17
139.675,18
139.684,20
139.692,20
139.7,30
139.709,31
139.717,15
139.725,24
139.734,21
139.742,27
139.75,22
139.759,27
139.767,17
139.776,28
139.784,26
139.792,22
139.801,34
139.809,31
139.817,30
139.826,22
139.834,30
139.842,46
139.851,39
139.859,28
139.867,27
139.876,31
139.884,28
139.893,23
139.901,26
139.909,34
139.918,33
139.926,23
139.934,39
139.943,24
139.951,18
139.959,26
139.968,34
139.976,36
139.984,36
139.993,34
140.001,34
140.009,46
140.018,28
140.026,49
140.035,41
140.043,31
140.051,48
140.06,45
140.068,48
140.076,35
140.085,45
140.093,27
140.101,47
140.11,37
140.118,50
140.126,26
140.135,35
140.143,46
140.152,55
140.16,49
140.168,40
140.177,50
140.185,56
140.193,40
140.202,47
140.21,49
140.218,63
140.227,65
140.235,47
140.243,56
140.252,53
140.26,63
140.269,53
140.277,75
140.285,55
140.294,58
140.302,59
140.31,58
140.319,55
140.327,55
140.335,50
140.344,53
140.352,72
140.36,58
140.369,69
140.377,67
140.385,59
140.394,50
140.402,47
140.411,55
140.419,49
140.427,61
140.436,56
140.444,46
140.452,52
140.461,58
140.469,48
140.477,65
140.486,68
140.494,80
140.502,47
140.511,63
140.519,48
140.528,50
140.536,45
140.544,46
140.553,40
140.561,36
140.569,41
140.578,45
140.586,46
140.594,40
140.603,33
140.611,46
140.619,34
140.628,47
140.636,52
140.645,45
140.653,27
140.661,36
140.67,26
140.678,47
140.686,40
140.695,27
140.703,29
140.711,29
140.72,28
140.728,35
140.736,34
140.745,28
140.753,21
140.762,34
140.77,27
140.778,24
140.787,23
140.795,20
140.803,31
140.812,23
140.82,27
140.828,17
140.837,35
140.845,23
140.853,29
140.862,20
140.87,33
140.878,23
140.887,30
140.895,23
140.904,21
140.912,30
140.92,30
140.929,29
140.937,29
140.945,26
140.954,23
140.962,24
140.97,34
140.979,30
140.987,31
140.995,33
141.004,34
141.012,28
141.021,28
141.029,39
141.037,27
141.046,26
141.054,28
141.062,33
141.071,30
141.079,24
141.087,27
141.096,27
141.104,37
141.112,34
141.121,26
141.129,31
141.138,23
141.146,30
141.154,54
141.163,31
141.171,26
141.179,33
141.188,26
141.196,36
141.204,35
141.213,29
141.221,41
141.229,36
141.238,22
141.246,31
141.254,34
141.263,31
141.271,37
141.28,28
141.288,23
141.296,24
141.305,28
141.313,33
141.321,36
141.33,31
141.338,29
141.346,30
141.355,20
141.363,35
141.371,24
141.38,23
141.388,39
141.397,18
141.405,29
141.413,17
141.422,27
141.43,23
141.438,27
141.447,20
141.455,17
141.463,21
141.472,17
141.48,15
141.488,18
141.497,20
141.505,14
141.514,20
141.522,23
141.53,24
141.539,22
141.547,16
141.555,14
141.564,15
141.572,14
141.58,11
141.589,16
141.597,11
141.605,18
141.614,15
141.622,17
141.63,10
141.639,8
141.647,7
141.656,20
141.664,13
141.672,16
141.681,18
141.689,20
141.697,15
141.706,10
141.714,10
141.722,11
141.731,16
141.739,17
141.747,8
141.756,7
141.764,21
141.773,13
141.781,11
141.789,11
141.798,16
141.806,16
141.814,11
141.823,15
141.831,7
141.839,10
141.848,15
141.856,16
141.864,8
141.873,13
141.881,15
141.89,13
141.898,15
141.906,16
141.915,13
141.923,15
141.931,16
141.94,3
141.948,17
141.956,10
141.965,16
141.973,18
141.981,7
141.99,11
141.998,14
142.006,20
142.015,21
142.023,11
142.032,17
142.04,7
142.048,14
142.057,13
142.065,18
142.073,10
142.082,14
142.09,18
142.098,15
142.107,14
142.115,13
142.123,8
142.132,11
142.14,13
142.149,11
142.157,11
142.165,9
142.174,16
142.182,10
142.19,13
142.199,22
142.207,5
142.215,23
142.224,9
142.232,24
142.24,18
142.249,14
142.257,14
142.266,5
142.274,7
142.282,18
142.291,11
142.299,14
142.307,13
142.316,16
142.324,16
142.332,13
142.341,11
142.349,13
142.357,14
142.366,10
142.374,11
142.382,17
142.391,14
142.399,14
142.408,16
142.416,11
142.424,16
142.433,15
142.441,11
142.449,11
142.458,16
142.466,14
142.474,17
142.483,17
142.491,9
142.499,17
142.508,21
142.516,15
142.525,18
142.533,10
142.541,10
142.55,11
142.558,14
142.566,8
142.575,20
142.583,9
142.591,16
142.6,13
142.608,7
142.616,10
142.625,11
142.633,13
142.642,10
142.65,17
142.658,7
142.667,16
142.675,11
142.683,20
142.692,20
142.7,16
142.708,8
142.717,9
142.725,11
142.733,8
142.742,15
142.75,15
142.758,18
142.767,14
142.775,22
142.784,26
142.792,9
142.8,10
142.809,11
142.817,22
142.825,11
142.834,18
142.842,10
142.85,16
142.859,10
142.867,18
142.875,14
142.884,14
142.892,16
142.901,14
142.909,14
142.917,16
142.926,10
142.934,7
142.942,18
142.951,17
142.959,11
142.967,15
142.976,13
142.984,15
142.992,10
143.001,18
143.009,14
143.018,15
143.026,10
143.034,16
143.043,11
143.051,8
143.059,14
143.068,13
143.076,13
143.084,13
143.093,10
143.101,20
143.109,13
143.118,15
143.126,13
143.135,9
143.143,8
143.151,15
143.16,15
143.168,10
143.176,11
143.185,10
143.193,15
143.201,9
143.21,15
143.218,10
143.226,18
143.235,10
143.243,4
143.251,17
143.26,11
143.268,18
143.277,16
143.285,17
143.293,15
143.302,11
143.31,14
143.318,11
143.327,18
143.335,10
143.343,15
143.352,10
143.36,20
143.368,11
143.377,10
143.385,13
143.394,14
143.402,9
143.41,13
143.419,11
143.427,10
143.435,9
143.444,10
143.452,14
143.46,13
143.469,9
143.477,13
143.485,21
143.494,15
143.502,15
143.511,20
143.519,13
143.527,11
143.536,10
143.544,17
143.552,14
143.561,15
143.569,5
143.577,8
143.586,5
143.594,15
143.602,20
143.611,11
143.619,9
143.627,17
143.636,16
143.644,11
143.653,14
143.661,16
143.669,14
143.678,13
143.686,9
143.694,11
143.703,14
143.711,7
143.719,10
143.728,9
143.736,10
143.744,10
143.753,15
143.761,7
143.77,7
143.778,11
143.786,15
143.795,10
143.803,13
143.811,10
143.82,4
143.828,16
143.836,13
143.845,16
143.853,11
143.861,10
143.87,10
143.878,15
143.887,5
143.895,16
143.903,7
143.912,14
143.92,10
143.928,10
143.937,15
143.945,20
143.953,9
143.962,16
143.97,8
143.978,11
143.987,15
143.995,11
144.003,15
144.012,11
144.02,14
144.029,13
144.037,15
144.045,17
144.054,11
144.062,15
144.07,15
144.079,24
144.087,7
144.095,14
144.104,11
144.112,18
144.12,8
144.129,11
144.137,14
144.146,11
144.154,8
144.162,4
144.171,15
144.179,16
144.187,13
144.196,9
144.204,15
144.212,14
144.221,10
144.229,13
144.237,9
144.246,14
144.254,10
144.263,15
144.271,14
144.279,14
144.288,13
144.296,21
144.304,11
144.313,11
144.321,10
144.329,8
144.338,14
144.346,15
144.354,9
144.363,18
144.371,14
144.379,15
144.388,9
144.396,16
144.405,16
144.413,11
144.421,20
144.43,17
144.438,18
144.446,16
144.455,14
144.463,8
144.471,15
144.48,10
144.488,9
144.496,18
144.505,14
144.513,8
144.522,14
144.53,14
144.538,11
144.547,11
144.555,14
144.563,14
144.572,13
144.58,15
144.588,9
144.597,14
144.605,14
144.613,9
144.622,9
144.63,8
144.639,15
144.647,11
144.655,7
144.664,18
144.672,11
144.68,13
144.689,27
144.697,11
144.705,10
144.714,10
144.722,11
144.73,11
144.739,10
144.747,11
144.755,10
144.764,18
144.772,15
144.781,8
144.789,20
144.797,11
144.806,8
144.814,11
144.822,9
144.831,8
144.839,22
144.847,15
144.856,8
144.864,15
144.872,11
144.881,9
144.889,9
144.898,15
144.906,14
144.914,13
144.923,17
144.931,15
144.939,11
144.948,13
144.956,15
144.964,7
144.973,11
144.981,10
144.989,16
144.998,15
145.006,13
145.015,13
145.023,15
145.031,10
145.04,15
145.048,8
145.056,9
145.065,14
145.073,13
145.081,9
145.09,18
145.098,16
145.106,18
145.115,13
145.123,10
145.131,9
145.14,8
145.148,17
145.157,11
145.165,13
145.173,14
145.182,14
145.19,9
145.198,11
145.207,17
145.215,22
145.223,11
145.232,23
145.24,7
145.248,8
145.257,18
145.265,13
145.274,16
145.282,21
145.29,10
145.299,8
145.307,11
145.315,14
145.324,15
145.332,14
145.34,21
145.349,16
145.357,14
145.365,8
145.374,11
145.382,14
145.391,20
145.399,11
145.407,17
145.416,10
145.424,3
145.432,10
145.441,13
145.449,4
145.457,21
145.466,17
145.474,17
145.482,9
145.491,11
145.499,13
145.508,16
145.516,22
145.524,14
145.533,11
145.541,5
145.549,4
145.558,14
145.566,8
145.574,9
145.583,13
145.591,8
145.599,18
145.608,14
145.616,14
145.624,10
145.633,9
145.641,17
145.65,11
145.658,13
145.666,13
145.675,14
145.683,8
145.691,13
145.7,17
145.708,14
145.716,8
145.725,15
145.733,10
145.741,22
145.75,10
145.758,10
145.767,10
145.775,15
145.783,14
145.792,17
145.8,18
145.808,11
145.817,10
145.825,10
145.833,17
145.842,13
145.85,15
145.858,11
145.867,11
145.875,13
145.884,13
145.892,8
145.9,10
145.909,13
145.917,11
145.925,14
145.934,9
145.942,10
145.95,17
145.959,15
145.967,14
145.975,14
145.984,11
145.992,11
146,9
146.009,13
146.017,3
146.026,10
146.034,17
146.042,11
146.051,14
146.059,20
146.067,7
146.076,11
146.084,14
146.092,8
146.101,18
146.109,17
146.117,15
146.126,8
146.134,11
146.143,9
146.151,14
146.159,13
146.168,10
146.176,11
146.184,9
146.193,14
146.201,18
146.209,4
146.218,15
146.226,15
146.234,9
146.243,5
146.251,15
146.26,11
146.268,22
146.276,9
146.285,16
146.293,15
146.301,16
146.31,13
146.318,21
146.326,15
146.335,7
146.343,11
146.351,10
146.36,16
146.368,14
146.376,8
146.385,14
146.393,10
146.402,11
146.41,11
146.418,10
146.427,10
146.435,13
146.443,10
146.452,13
146.46,11
146.468,15
146.477,11
146.485,14
146.493,8
146.502,13
146.51,3
146.519,3
146.527,11
146.535,17
146.544,11
146.552,17
146.56,14
146.569,9
146.577,9
146.585,5
146.594,13
146.602,14
146.61,11
146.619,15
146.627,14
146.636,15
146.644,13
146.652,13
146.661,16
146.669,10
146.677,5
146.686,20
146.694,9
146.702,8
146.711,20
146.719,9
146.727,10
146.736,11
146.744,10
146.752,10
146.761,11
146.769,14
146.778,18
146.786,16
146.794,8
146.803,16
146.811,5
146.819,26
146.828,5
146.836,8
146.844,7
146.853,13
146.861,18
146.869,15
146.878,8
146.886,14
146.895,20
146.903,13
146.911,11
146.92,11
146.928,9
146.936,10
146.945,11
146.953,15
146.961,20
146.97,16
146.978,13
146.986,11
146.995,10
147.003,7
147.012,8
147.02,16
147.028,11
147.037,15
147.045,15
147.053,21
147.062,14
147.07,5
147.078,9
147.087,15
147.095,17
147.103,21
147.112,11
147.12,11
147.128,9
147.137,18
147.145,14
147.154,11
147.162,8
147.17,11
147.179,13
147.187,13
147.195,8
147.204,11
147.212,16
147.22,7
147.229,14
147.237,10
147.245,8
147.254,13
147.262,8
147.271,9
147.279,8
147.287,9
147.296,9
147.304,9
147.312,7
147.321,17
147.329,8
147.337,14
147.346,10
147.354,16
147.362,8
147.371,11
147.379,16
147.388,16
147.396,8
147.404,15
147.413,15
147.421,5
147.429,8
147.438,10
147.446,14
147.454,11
147.463,10
147.471,17
147.479,15
147.488,17
147.496,11
147.504,17
147.513,13
147.521,16
147.53,11
147.538,18
147.546,9
147.555,10
147.563,14
147.571,14
147.58,5
147.588,17
147.596,22
147.605,24
147.613,22
147.621,16
147.63,7
147.638,15
147.647,8
147.655,16
147.663,14
147.672,9
147.68,13
147.688,17
147.697,8
147.705,7
147.713,16
147.722,7
147.73,10
147.738,9
147.747,16
147.755,13
147.764,10
147.772,16
147.78,8
147.789,9
147.797,18
147.805,14
147.814,9
147.822,15
147.83,9
147.839,13
147.847,21
147.855,5
147.864,10
147.872,7
147.881,13
147.889,11
147.897,17
147.906,16
147.914,10
147.922,15
147.931,9
147.939,15
147.947,10
147.956,11
147.964,13
147.972,10
147.981,11
147.989,17
147.997,2
148.006,11
148.014,15
148.023,15
148.031,13
148.039,17
148.048,14
148.056,7
148.064,13
148.073,9
148.081,8
148.089,20
148.098,9
148.106,14
148.114,14
148.123,17
148.131,10
148.14,17
148.148,11
148.156,16
148.165,14
148.173,18
148.181,7
148.19,11
148.198,11
148.206,17
148.215,15
148.223,17
148.231,9
148.24,11
148.248,11
148.257,14
148.265,14
148.273,9
148.282,15
148.29,14
148.298,22
148.307,10
148.315,10
148.323,22
148.332,16
148.34,15
148.348,24
148.357,2
148.365,8
148.373,5
148.382,15
148.39,8
148.399,15
148.407,11
148.415,8
148.424,16
148.432,11
148.44,15
148.449,8
148.457,7
148.465,7
148.474,8
148.482,15
148.49,10
148.499,14
148.507,10
148.516,11
148.524,10
148.532,7
148.541,16
148.549,11
148.557,14
148.566,9
148.574,15
148.582,20
148.591,20
148.599,10
148.607,15
148.616,14
148.624,14
148.633,17
148.641,15
148.649,10
148.658,16
148.666,15
148.674,15
148.683,9
148.691,11
148.699,7
148.708,22
148.716,8
148.724,15
148.733,9
148.741,7
148.749,15
148.758,17
148.766,10
148.775,11
148.783,14
148.791,10
148.8,21
148.808,13
148.816,17
148.825,10
148.833,17
148.841,14
148.85,16
148.858,8
148.866,9
148.875,9
148.883,13
148.892,5
148.9,11
148.908,24
148.917,13
148.925,16
148.933,9
148.942,10
148.95,4
148.958,14
148.967,9
148.975,17
148.983,8
148.992,15
149,14
149.009,15
149.017,9
149.025,16
149.034,15
149.042,16
149.05,16
149.059,11
149.067,18
149.075,11
149.084,10
149.092,15
149.1,11
149.109,15
149.117,11
149.125,10
149.134,8
149.142,10
149.151,10
149.159,14
149.167,9
149.176,16
149.184,13
149.192,13
149.201,16
149.209,16
149.217,23
149.226,13
149.234,16
149.242,17
149.251,11
149.259,17
149.268,13
149.276,17
149.284,18
149.293,20
149.301,10
149.309,16
149.318,20
149.326,17
149.334,16
149.343,10
149.351,13
149.359,9
149.368,14
149.376,27
149.385,17
149.393,18
149.401,17
149.41,15
149.418,14
149.426,11
149.435,13
149.443,18
149.451,15
149.46,15
149.468,21
149.476,16
149.485,16
149.493,14
149.501,13
149.51,7
149.518,13
149.527,27
149.535,16
149.543,14
149.552,15
149.56,22
149.568,11
149.577,15
149.585,17
149.593,11
149.602,8
149.61,20
149.618,18
149.627,18
149.635,18
149.644,10
149.652,16
149.66,17
149.669,10
149.677,14
149.685,22
149.694,22
149.702,9
149.71,18
149.719,13
149.727,14
149.735,8
149.744,8
149.752,11
149.761,26
149.769,11
149.777,17
149.786,15
149.794,7
149.802,10
149.811,14
149.819,20
149.827,26
149.836,21
149.844,24
149.852,11
149.861,22
149.869,14
149.877,16
149.886,17
149.894,13
149.903,15
149.911,13
149.919,21
149.928,18
149.936,16
149.944,13
149.953,13
149.961,17
149.969,16
149.978,20
149.986,14
149.994,18
150.003,14
